
      	X(nS)     	Ch1(mV)      


 1    	0.0000    	-81.355164  
 2    	0.0244    	-82.002014  
 3    	0.0489    	-82.002014  
 4    	0.0733    	-83.223877  
 5    	0.0977    	-82.361389  
 6    	0.1221    	-82.433289  
 7    	0.1466    	-82.720764  
 8    	0.1710    	-82.289551  
 9    	0.1954    	-82.648926  
 10   	0.2198    	-81.570801  
 11   	0.2443    	-81.714539  
 12   	0.2687    	-82.073914  
 13   	0.2931    	-82.289551  
 14   	0.3175    	-83.080139  
 15   	0.3420    	-82.864502  
 16   	0.3664    	-82.217651  
 17   	0.3908    	-82.002014  
 18   	0.4152    	-82.289551  
 19   	0.4397    	-82.289551  
 20   	0.4641    	-82.361389  
 21   	0.4885    	-81.714539  
 22   	0.5129    	-82.289551  
 23   	0.5374    	-82.361389  
 24   	0.5618    	-82.073914  
 25   	0.5862    	-82.433289  
 26   	0.6106    	-82.720764  
 27   	0.6351    	-83.080139  
 28   	0.6595    	-83.798889  
 29   	0.6839    	-83.367676  
 30   	0.7084    	-83.295776  
 31   	0.7328    	-83.152039  
 32   	0.7572    	-83.511414  
 33   	0.7816    	-83.727051  
 34   	0.8061    	-82.792664  
 35   	0.8305    	-81.858276  
 36   	0.8549    	-82.936401  
 37   	0.8793    	-82.648926  
 38   	0.9038    	-82.720764  
 39   	0.9282    	-82.577026  
 40   	0.9526    	-83.367676  
 41   	0.9770    	-82.864502  
 42   	1.0015    	-82.720764  
 43   	1.0259    	-82.720764  
 44   	1.0503    	-83.008301  
 45   	1.0747    	-82.505127  
 46   	1.0992    	-83.295776  
 47   	1.1236    	-82.720764  
 48   	1.1480    	-82.648926  
 49   	1.1724    	-83.583252  
 50   	1.1969    	-83.583252  
 51   	1.2213    	-81.714539  
 52   	1.2457    	-82.577026  
 53   	1.2702    	-82.289551  
 54   	1.2946    	-82.217651  
 55   	1.3190    	-82.792664  
 56   	1.3434    	-81.786377  
 57   	1.3679    	-83.080139  
 58   	1.3923    	-82.361389  
 59   	1.4167    	-83.367676  
 60   	1.4411    	-83.080139  
 61   	1.4656    	-82.648926  
 62   	1.4900    	-83.295776  
 63   	1.5144    	-83.152039  
 64   	1.5388    	-83.367676  
 65   	1.5633    	-82.792664  
 66   	1.5877    	-82.577026  
 67   	1.6121    	-83.583252  
 68   	1.6365    	-82.864502  
 69   	1.6610    	-83.295776  
 70   	1.6854    	-84.445801  
 71   	1.7098    	-84.230164  
 72   	1.7342    	-83.583252  
 73   	1.7587    	-83.080139  
 74   	1.7831    	-82.720764  
 75   	1.8075    	-83.655151  
 76   	1.8319    	-82.936401  
 77   	1.8564    	-82.864502  
 78   	1.8808    	-82.936401  
 79   	1.9052    	-82.433289  
 80   	1.9297    	-82.577026  
 81   	1.9541    	-81.858276  
 82   	1.9785    	-82.289551  
 83   	2.0029    	-83.511414  
 84   	2.0274    	-83.942627  
 85   	2.0518    	-83.367676  
 86   	2.0762    	-83.295776  
 87   	2.1006    	-83.295776  
 88   	2.1251    	-83.583252  
 89   	2.1495    	-83.439514  
 90   	2.1739    	-82.720764  
 91   	2.1983    	-82.289551  
 92   	2.2228    	-82.720764  
 93   	2.2472    	-82.073914  
 94   	2.2716    	-82.648926  
 95   	2.2960    	-81.067627  
 96   	2.3205    	-81.498901  
 97   	2.3449    	-80.636414  
 98   	2.3693    	-81.498901  
 99   	2.3937    	-81.355164  
 100  	2.4182    	-81.570801  
 101  	2.4426    	-81.930176  
 102  	2.4670    	-82.648926  
 103  	2.4915    	-82.145752  
 104  	2.5159    	-82.720764  
 105  	2.5403    	-81.642639  
 106  	2.5647    	-81.858276  
 107  	2.5892    	-82.217651  
 108  	2.6136    	-80.564514  
 109  	2.6380    	-80.852051  
 110  	2.6624    	-80.564514  
 111  	2.6869    	-80.995789  
 112  	2.7113    	-80.923889  
 113  	2.7357    	-81.642639  
 114  	2.7601    	-82.289551  
 115  	2.7846    	-83.080139  
 116  	2.8090    	-82.361389  
 117  	2.8334    	-83.008301  
 118  	2.8578    	-83.367676  
 119  	2.8823    	-83.008301  
 120  	2.9067    	-82.361389  
 121  	2.9311    	-82.505127  
 122  	2.9555    	-82.073914  
 123  	2.9800    	-81.930176  
 124  	3.0044    	-81.858276  
 125  	3.0288    	-82.361389  
 126  	3.0532    	-83.152039  
 127  	3.0777    	-82.433289  
 128  	3.1021    	-83.080139  
 129  	3.1265    	-81.858276  
 130  	3.1510    	-82.648926  
 131  	3.1754    	-82.289551  
 132  	3.1998    	-83.295776  
 133  	3.2242    	-83.295776  
 134  	3.2487    	-82.720764  
 135  	3.2731    	-82.145752  
 136  	3.2975    	-83.008301  
 137  	3.3219    	-82.217651  
 138  	3.3464    	-82.073914  
 139  	3.3708    	-82.002014  
 140  	3.3952    	-82.361389  
 141  	3.4196    	-82.433289  
 142  	3.4441    	-82.720764  
 143  	3.4685    	-81.211426  
 144  	3.4929    	-82.002014  
 145  	3.5173    	-82.002014  
 146  	3.5418    	-81.786377  
 147  	3.5662    	-81.786377  
 148  	3.5906    	-81.714539  
 149  	3.6150    	-82.002014  
 150  	3.6395    	-82.073914  
 151  	3.6639    	-81.642639  
 152  	3.6883    	-81.498901  
 153  	3.7128    	-81.427002  
 154  	3.7372    	-81.930176  
 155  	3.7616    	-81.067627  
 156  	3.7860    	-82.505127  
 157  	3.8105    	-82.217651  
 158  	3.8349    	-81.714539  
 159  	3.8593    	-82.217651  
 160  	3.8837    	-82.002014  
 161  	3.9082    	-81.355164  
 162  	3.9326    	-81.139526  
 163  	3.9570    	-81.355164  
 164  	3.9814    	-81.139526  
 165  	4.0059    	-81.642639  
 166  	4.0303    	-82.002014  
 167  	4.0547    	-81.642639  
 168  	4.0791    	-81.642639  
 169  	4.1036    	-82.002014  
 170  	4.1280    	-81.786377  
 171  	4.1524    	-81.570801  
 172  	4.1768    	-81.427002  
 173  	4.2013    	-81.858276  
 174  	4.2257    	-81.283264  
 175  	4.2501    	-81.211426  
 176  	4.2745    	-80.923889  
 177  	4.2990    	-80.420776  
 178  	4.3234    	-80.205139  
 179  	4.3478    	-80.348877  
 180  	4.3723    	-80.133301  
 181  	4.3967    	-80.636414  
 182  	4.4211    	-80.636414  
 183  	4.4455    	-81.498901  
 184  	4.4700    	-81.139526  
 185  	4.4944    	-81.930176  
 186  	4.5188    	-80.636414  
 187  	4.5432    	-80.923889  
 188  	4.5677    	-81.139526  
 189  	4.5921    	-81.714539  
 190  	4.6165    	-81.570801  
 191  	4.6409    	-81.498901  
 192  	4.6654    	-81.355164  
 193  	4.6898    	-80.708252  
 194  	4.7142    	-80.492676  
 195  	4.7386    	-80.205139  
 196  	4.7631    	-80.420776  
 197  	4.7875    	-79.630127  
 198  	4.8119    	-80.277039  
 199  	4.8363    	-80.133301  
 200  	4.8608    	-79.630127  
 201  	4.8852    	-79.270752  
 202  	4.9096    	-78.264526  
 203  	4.9340    	-78.839539  
 204  	4.9585    	-78.192627  
 205  	4.9829    	-78.480164  
 206  	5.0073    	-78.911377  
 207  	5.0318    	-77.545776  
 208  	5.0562    	-77.689514  
 209  	5.0806    	-77.186401  
 210  	5.1050    	-74.886414  
 211  	5.1295    	-73.017639  
 212  	5.1539    	-71.652039  
 213  	5.1783    	-71.436401  
 214  	5.2027    	-69.639526  
 215  	5.2272    	-71.005127  
 216  	5.2516    	-70.573914  
 217  	5.2760    	-70.070801  
 218  	5.3004    	-69.855164  
 219  	5.3249    	-69.927002  
 220  	5.3493    	-68.920776  
 221  	5.3737    	-68.705139  
 222  	5.3981    	-68.417664  
 223  	5.4226    	-68.202026  
 224  	5.4470    	-68.489502  
 225  	5.4714    	-66.764526  
 226  	5.4958    	-61.517639  
 227  	5.5203    	-51.095764  
 228  	5.5447    	-29.173891  
 229  	5.5691    	-9.839539   
 230  	5.5936    	5.182373    
 231  	5.6180    	16.682373   
 232  	5.6424    	25.522949   
 233  	5.6668    	32.997925   
 234  	5.6913    	36.160522   
 235  	5.7157    	39.466675   
 236  	5.7401    	41.622925   
 237  	5.7645    	44.138550   
 238  	5.7890    	45.576050   
 239  	5.8134    	44.929199   
 240  	5.8378    	45.072998   
 241  	5.8622    	44.569824   
 242  	5.8867    	45.647949   
 243  	5.9111    	45.647949   
 244  	5.9355    	46.079224   
 245  	5.9599    	46.869873   
 246  	5.9844    	47.229248   
 247  	6.0088    	47.588623   
 248  	6.0332    	48.379272   
 249  	6.0576    	49.529175   
 250  	6.0821    	48.882324   
 251  	6.1065    	49.672974   
 252  	6.1309    	50.176147   
 253  	6.1553    	50.104248   
 254  	6.1798    	51.326050   
 255  	6.2042    	51.685425   
 256  	6.2286    	51.397949   
 257  	6.2531    	50.894897   
 258  	6.2775    	50.894897   
 259  	6.3019    	51.038574   
 260  	6.3263    	51.757324   
 261  	6.3508    	51.757324   
 262  	6.3752    	52.044800   
 263  	6.3996    	51.973022   
 264  	6.4240    	51.901123   
 265  	6.4485    	51.469849   
 266  	6.4729    	52.044800   
 267  	6.4973    	52.476074   
 268  	6.5217    	52.260498   
 269  	6.5462    	51.326050   
 270  	6.5706    	52.476074   
 271  	6.5950    	52.260498   
 272  	6.6194    	53.194824   
 273  	6.6439    	51.973022   
 274  	6.6683    	53.266724   
 275  	6.6927    	53.410522   
 276  	6.7171    	52.476074   
 277  	6.7416    	53.554199   
 278  	6.7660    	52.979248   
 279  	6.7904    	53.266724   
 280  	6.8149    	53.338623   
 281  	6.8393    	52.763550   
 282  	6.8637    	53.338623   
 283  	6.8881    	53.122925   
 284  	6.9126    	53.482300   
 285  	6.9370    	54.416748   
 286  	6.9614    	54.416748   
 287  	6.9858    	54.991699   
 288  	7.0103    	54.991699   
 289  	7.0347    	54.848026   
 290  	7.0591    	54.704224   
 291  	7.0835    	53.913574   
 292  	7.1080    	54.057373   
 293  	7.1324    	53.841675   
 294  	7.1568    	55.063599   
 295  	7.1812    	54.632320   
 296  	7.2057    	54.272949   
 297  	7.2301    	55.279171   
 298  	7.2545    	55.494877   
 299  	7.2789    	55.279171   
 300  	7.3034    	56.069824   
 301  	7.3278    	55.135498   
 302  	7.3522    	56.213623   
 303  	7.3766    	56.644897   
 304  	7.4011    	56.501099   
 305  	7.4255    	56.716679   
 306  	7.4499    	57.291752   
 307  	7.4744    	57.291752   
 308  	7.4988    	56.357300   
 309  	7.5232    	56.932373   
 310  	7.5476    	56.141720   
 311  	7.5721    	55.638550   
 312  	7.5965    	54.991699   
 313  	7.6209    	54.776123   
 314  	7.6453    	54.776123   
 315  	7.6698    	54.991699   
 316  	7.6942    	54.776123   
 317  	7.7186    	55.207394   
 318  	7.7430    	56.069824   
 319  	7.7675    	55.997925   
 320  	7.7919    	56.572998   
 321  	7.8163    	55.782352   
 322  	7.8407    	55.638550   
 323  	7.8652    	56.357300   
 324  	7.8896    	57.219849   
 325  	7.9140    	57.147949   
 326  	7.9384    	56.716679   
 327  	7.9629    	57.076046   
 328  	7.9873    	56.932373   
 329  	8.0117    	57.004276   
 330  	8.0362    	56.788570   
 331  	8.0606    	56.357300   
 332  	8.0850    	55.638550   
 333  	8.1094    	56.285522   
 334  	8.1339    	56.141720   
 335  	8.1583    	55.638550   
 336  	8.1827    	55.638550   
 337  	8.2071    	55.422974   
 338  	8.2316    	54.201050   
 339  	8.2560    	55.279171   
 340  	8.2804    	55.782352   
 341  	8.3048    	54.848026   
 342  	8.3293    	54.776123   
 343  	8.3537    	54.201050   
 344  	8.3781    	54.272949   
 345  	8.4025    	54.057373   
 346  	8.4270    	55.351074   
 347  	8.4514    	56.285522   
 348  	8.4758    	54.632320   
 349  	8.5002    	54.416748   
 350  	8.5247    	54.919804   
 351  	8.5491    	53.985474   
 352  	8.5735    	54.632320   
 353  	8.5979    	54.848026   
 354  	8.6224    	55.063599   
 355  	8.6468    	55.422974   
 356  	8.6712    	54.632320   
 357  	8.6957    	55.135498   
 358  	8.7201    	55.279171   
 359  	8.7445    	55.566769   
 360  	8.7689    	55.997925   
 361  	8.7934    	55.854244   
 362  	8.8178    	56.932373   
 363  	8.8422    	55.279171   
 364  	8.8666    	56.285522   
 365  	8.8911    	56.860474   
 366  	8.9155    	56.429203   
 367  	8.9399    	57.004276   
 368  	8.9643    	56.429203   
 369  	8.9888    	56.213623   
 370  	9.0132    	56.285522   
 371  	9.0376    	56.429203   
 372  	9.0620    	56.213623   
 373  	9.0865    	56.644897   
 374  	9.1109    	55.926147   
 375  	9.1353    	55.279171   
 376  	9.1597    	55.710449   
 377  	9.1842    	55.207394   
 378  	9.2086    	55.710449   
 379  	9.2330    	55.566769   
 380  	9.2574    	55.997925   
 381  	9.2819    	55.854244   
 382  	9.3063    	56.069824   
 383  	9.3307    	56.429203   
 384  	9.3552    	55.638550   
 385  	9.3796    	55.135498   
 386  	9.4040    	55.566769   
 387  	9.4284    	55.063599   
 388  	9.4529    	55.351074   
 389  	9.4773    	55.351074   
 390  	9.5017    	55.710449   
 391  	9.5261    	56.357300   
 392  	9.5506    	56.788570   
 393  	9.5750    	57.579224   
 394  	9.5994    	57.723022   
 395  	9.6238    	57.363644   
 396  	9.6483    	57.723022   
 397  	9.6727    	56.285522   
 398  	9.6971    	56.716679   
 399  	9.7215    	57.219849   
 400  	9.7460    	57.076046   
 401  	9.7704    	56.357300   
 402  	9.7948    	57.004276   
 403  	9.8192    	56.788570   
 404  	9.8437    	56.501099   
 405  	9.8681    	56.932373   
 406  	9.8925    	56.285522   
 407  	9.9170    	56.501099   
 408  	9.9414    	56.357300   
 409  	9.9658    	55.997925   
 410  	9.9902    	55.566769   
 411  	10.0147   	56.501099   
 412  	10.0391   	57.219849   
 413  	10.0635   	56.501099   
 414  	10.0879   	56.357300   
 415  	10.1124   	57.004276   
 416  	10.1368   	57.004276   
 417  	10.1612   	56.501099   
 418  	10.1856   	57.076046   
 419  	10.2101   	57.363644   
 420  	10.2345   	56.357300   
 421  	10.2589   	57.147949   
 422  	10.2833   	56.572998   
 423  	10.3078   	56.644897   
 424  	10.3322   	56.572998   
 425  	10.3566   	57.291752   
 426  	10.3810   	56.716679   
 427  	10.4055   	56.932373   
 428  	10.4299   	57.219849   
 429  	10.4543   	57.291752   
 430  	10.4787   	57.363644   
 431  	10.5032   	56.860474   
 432  	10.5276   	56.141720   
 433  	10.5520   	55.782352   
 434  	10.5765   	56.429203   
 435  	10.6009   	56.716679   
 436  	10.6253   	56.141720   
 437  	10.6497   	56.213623   
 438  	10.6742   	56.429203   
 439  	10.6986   	56.501099   
 440  	10.7230   	56.069824   
 441  	10.7474   	56.357300   
 442  	10.7719   	55.279171   
 443  	10.7963   	55.997925   
 444  	10.8207   	55.710449   
 445  	10.8451   	56.429203   
 446  	10.8696   	56.644897   
 447  	10.8940   	55.782352   
 448  	10.9184   	55.926147   
 449  	10.9428   	56.644897   
 450  	10.9673   	56.644897   
 451  	10.9917   	56.141720   
 452  	11.0161   	56.213623   
 453  	11.0405   	56.716679   
 454  	11.0650   	57.507324   
 455  	11.0894   	56.285522   
 456  	11.1138   	56.572998   
 457  	11.1383   	56.501099   
 458  	11.1627   	56.860474   
 459  	11.1871   	56.932373   
 460  	11.2115   	56.860474   
 461  	11.2360   	56.141720   
 462  	11.2604   	56.285522   
 463  	11.2848   	56.141720   
 464  	11.3092   	55.782352   
 465  	11.3337   	56.357300   
 466  	11.3581   	56.788570   
 467  	11.3825   	56.357300   
 468  	11.4069   	56.357300   
 469  	11.4314   	57.076046   
 470  	11.4558   	56.429203   
 471  	11.4802   	56.141720   
 472  	11.5046   	56.429203   
 473  	11.5291   	56.644897   
 474  	11.5535   	57.076046   
 475  	11.5779   	57.291752   
 476  	11.6023   	57.076046   
 477  	11.6268   	56.572998   
 478  	11.6512   	55.782352   
 479  	11.6756   	56.644897   
 480  	11.7000   	56.788570   
 481  	11.7245   	55.710449   
 482  	11.7489   	55.422974   
 483  	11.7733   	54.991699   
 484  	11.7978   	55.422974   
 485  	11.8222   	55.279171   
 486  	11.8466   	56.069824   
 487  	11.8710   	55.782352   
 488  	11.8955   	55.997925   
 489  	11.9199   	56.141720   
 490  	11.9443   	55.997925   
 491  	11.9687   	55.710449   
 492  	11.9932   	55.997925   
 493  	12.0176   	55.638550   
 494  	12.0420   	55.494877   
 495  	12.0664   	56.429203   
 496  	12.0909   	56.357300   
 497  	12.1153   	55.997925   
 498  	12.1397   	55.782352   
 499  	12.1641   	55.279171   
 500  	12.1886   	55.782352   
 501  	12.2130   	54.991699   
 502  	12.2374   	55.135498   
 503  	12.2618   	55.279171   
 504  	12.2863   	55.494877   
 505  	12.3107   	55.854244   
 506  	12.3351   	56.644897   
 507  	12.3596   	56.141720   
 508  	12.3840   	55.997925   
 509  	12.4084   	55.782352   
 510  	12.4328   	54.919804   
 511  	12.4573   	55.279171   
 512  	12.4817   	55.566769   
 513  	12.5061   	54.632320   
 514  	12.5305   	54.344845   
 515  	12.5550   	54.201050   
 516  	12.5794   	53.769897   
 517  	12.6038   	53.482300   
 518  	12.6282   	53.626099   
 519  	12.6527   	53.410522   
 520  	12.6771   	54.488647   
 521  	12.7015   	54.848026   
 522  	12.7259   	53.482300   
 523  	12.7504   	54.057373   
 524  	12.7748   	54.057373   
 525  	12.7992   	53.841675   
 526  	12.8236   	53.697998   
 527  	12.8481   	53.769897   
 528  	12.8725   	53.554199   
 529  	12.8969   	53.985474   
 530  	12.9213   	54.057373   
 531  	12.9458   	53.913574   
 532  	12.9702   	53.554199   
 533  	12.9946   	52.691772   
 534  	13.0191   	53.697998   
 535  	13.0435   	52.835449   
 536  	13.0679   	52.763550   
 537  	13.0923   	51.326050   
 538  	13.1168   	51.685425   
 539  	13.1412   	51.757324   
 540  	13.1656   	53.338623   
 541  	13.1900   	53.122925   
 542  	13.2145   	52.547974   
 543  	13.2389   	52.619873   
 544  	13.2633   	52.979248   
 545  	13.2877   	51.901123   
 546  	13.3122   	52.332397   
 547  	13.3366   	52.260498   
 548  	13.3610   	52.476074   
 549  	13.3854   	52.763550   
 550  	13.4099   	52.547974   
 551  	13.4343   	52.547974   
 552  	13.4587   	52.979248   
 553  	13.4831   	52.619873   
 554  	13.5076   	53.051147   
 555  	13.5320   	52.619873   
 556  	13.5564   	52.044800   
 557  	13.5808   	52.691772   
 558  	13.6053   	52.691772   
 559  	13.6297   	52.116699   
 560  	13.6541   	52.116699   
 561  	13.6786   	51.901123   
 562  	13.7030   	52.763550   
 563  	13.7274   	53.122925   
 564  	13.7518   	51.973022   
 565  	13.7763   	52.404175   
 566  	13.8007   	52.188599   
 567  	13.8251   	52.547974   
 568  	13.8495   	52.476074   
 569  	13.8740   	53.913574   
 570  	13.8984   	53.194824   
 571  	13.9228   	53.338623   
 572  	13.9472   	54.919804   
 573  	13.9717   	54.488647   
 574  	13.9961   	54.057373   
 575  	14.0205   	54.201050   
 576  	14.0449   	53.194824   
 577  	14.0694   	52.835449   
 578  	14.0938   	52.907349   
 579  	14.1182   	52.691772   
 580  	14.1426   	51.685425   
 581  	14.1671   	51.254272   
 582  	14.1915   	51.254272   
 583  	14.2159   	51.613647   
 584  	14.2404   	51.326050   
 585  	14.2648   	51.613647   
 586  	14.2892   	51.326050   
 587  	14.3136   	52.619873   
 588  	14.3381   	52.691772   
 589  	14.3625   	52.044800   
 590  	14.3869   	52.260498   
 591  	14.4113   	52.691772   
 592  	14.4358   	53.338623   
 593  	14.4602   	51.973022   
 594  	14.4846   	52.044800   
 595  	14.5090   	51.901123   
 596  	14.5335   	53.410522   
 597  	14.5579   	53.410522   
 598  	14.5823   	53.626099   
 599  	14.6067   	54.416748   
 600  	14.6312   	54.632320   
 601  	14.6556   	54.632320   
 602  	14.6800   	54.848026   
 603  	14.7044   	54.129272   
 604  	14.7289   	54.632320   
 605  	14.7533   	53.482300   
 606  	14.7777   	53.338623   
 607  	14.8021   	53.194824   
 608  	14.8266   	53.482300   
 609  	14.8510   	53.266724   
 610  	14.8754   	53.194824   
 611  	14.8999   	53.697998   
 612  	14.9243   	53.841675   
 613  	14.9487   	53.769897   
 614  	14.9731   	54.344845   
 615  	14.9976   	54.057373   
 616  	15.0220   	53.482300   
 617  	15.0464   	52.691772   
 618  	15.0708   	52.691772   
 619  	15.0953   	53.410522   
 620  	15.1197   	53.482300   
 621  	15.1441   	52.763550   
 622  	15.1685   	52.691772   
 623  	15.1930   	52.476074   
 624  	15.2174   	53.985474   
 625  	15.2418   	52.979248   
 626  	15.2662   	52.907349   
 627  	15.2907   	52.332397   
 628  	15.3151   	52.332397   
 629  	15.3395   	53.338623   
 630  	15.3639   	53.051147   
 631  	15.3884   	53.051147   
 632  	15.4128   	52.116699   
 633  	15.4372   	51.541748   
 634  	15.4617   	51.469849   
 635  	15.4861   	51.685425   
 636  	15.5105   	51.901123   
 637  	15.5349   	51.397949   
 638  	15.5594   	50.894897   
 639  	15.5838   	52.476074   
 640  	15.6082   	52.619873   
 641  	15.6326   	52.188599   
 642  	15.6571   	52.188599   
 643  	15.6815   	53.266724   
 644  	15.7059   	53.410522   
 645  	15.7303   	53.769897   
 646  	15.7548   	53.338623   
 647  	15.7792   	52.979248   
 648  	15.8036   	53.482300   
 649  	15.8280   	51.469849   
 650  	15.8525   	51.829224   
 651  	15.8769   	52.044800   
 652  	15.9013   	51.469849   
 653  	15.9257   	50.822998   
 654  	15.9502   	50.535522   
 655  	15.9746   	50.607300   
 656  	15.9990   	50.894897   
 657  	16.0234   	51.901123   
 658  	16.0479   	52.404175   
 659  	16.0723   	51.182373   
 660  	16.0967   	50.607300   
 661  	16.1212   	50.894897   
 662  	16.1456   	49.960449   
 663  	16.1700   	49.744873   
 664  	16.1944   	49.241699   
 665  	16.2189   	49.888550   
 666  	16.2433   	48.666748   
 667  	16.2677   	48.666748   
 668  	16.2921   	48.307373   
 669  	16.3166   	47.947998   
 670  	16.3410   	46.797974   
 671  	16.3654   	46.007324   
 672  	16.3898   	46.079224   
 673  	16.4143   	45.647949   
 674  	16.4387   	44.785522   
 675  	16.4631   	44.354248   
 676  	16.4875   	45.288574   
 677  	16.5120   	44.210449   
 678  	16.5364   	42.844849   
 679  	16.5608   	42.341675   
 680  	16.5852   	42.413574   
 681  	16.6097   	41.766724   
 682  	16.6341   	40.185425   
 683  	16.6585   	41.263550   
 684  	16.6830   	40.760498   
 685  	16.7074   	39.754272   
 686  	16.7318   	39.754272   
 687  	16.7562   	38.676147   
 688  	16.7807   	37.813599   
 689  	16.8051   	37.598022   
 690  	16.8295   	37.957397   
 691  	16.8539   	37.957397   
 692  	16.8784   	37.957397   
 693  	16.9028   	37.382324   
 694  	16.9272   	37.310425   
 695  	16.9516   	36.376099   
 696  	16.9761   	35.801147   
 697  	17.0005   	36.232300   
 698  	17.0249   	35.729248   
 699  	17.0493   	35.082397   
 700  	17.0738   	34.794800   
 701  	17.0982   	34.579224   
 702  	17.1226   	34.579224   
 703  	17.1470   	34.219849   
 704  	17.1715   	34.363647   
 705  	17.1959   	33.860474   
 706  	17.2203   	32.997925   
 707  	17.2447   	32.207397   
 708  	17.2692   	30.697996   
 709  	17.2936   	29.979248   
 710  	17.3180   	29.763552   
 711  	17.3425   	29.691772   
 712  	17.3669   	29.260498   
 713  	17.3913   	28.469849   
 714  	17.4157   	27.391724   
 715  	17.4402   	27.679197   
 716  	17.4646   	26.313599   
 717  	17.4890   	26.888550   
 718  	17.5134   	27.247925   
 719  	17.5379   	25.738647   
 720  	17.5623   	25.954224   
 721  	17.5867   	24.660522   
 722  	17.6111   	23.510498   
 723  	17.6356   	23.510498   
 724  	17.6600   	22.647949   
 725  	17.6844   	22.001099   
 726  	17.7088   	20.994873   
 727  	17.7333   	20.635498   
 728  	17.7577   	20.132324   
 729  	17.7821   	19.269897   
 730  	17.8065   	18.766724   
 731  	17.8310   	18.335449   
 732  	17.8554   	17.904175   
 733  	17.8798   	18.119873   
 734  	17.9042   	17.257324   
 735  	17.9287   	15.963624   
 736  	17.9531   	14.957397   
 737  	17.9775   	15.460448   
 738  	18.0020   	15.316772   
 739  	18.0264   	13.304199   
 740  	18.0508   	13.160522   
 741  	18.0752   	12.297974   
 742  	18.0997   	11.363647   
 743  	18.1241   	11.004272   
 744  	18.1485   	10.716675   
 745  	18.1729   	10.644897   
 746  	18.1974   	11.723022   
 747  	18.2218   	9.926147    
 748  	18.2462   	9.638550    
 749  	18.2706   	8.344849    
 750  	18.2951   	9.279175    
 751  	18.3195   	8.488647    
 752  	18.3439   	8.272949    
 753  	18.3683   	6.619873    
 754  	18.3928   	6.188599    
 755  	18.4172   	5.541748    
 756  	18.4416   	5.182373    
 757  	18.4660   	4.679199    
 758  	18.4905   	5.110474    
 759  	18.5149   	3.529175    
 760  	18.5393   	2.882324    
 761  	18.5638   	2.019897    
 762  	18.5882   	0.151123    
 763  	18.6126   	-0.280151   
 764  	18.6370   	-2.364502   
 765  	18.6615   	-3.514527   
 766  	18.6859   	-4.736389   
 767  	18.7103   	-5.311401   
 768  	18.7347   	-5.527039   
 769  	18.7592   	-6.173889   
 770  	18.7836   	-7.180176   
 771  	18.8080   	-8.833252   
 772  	18.8324   	-9.911377   
 773  	18.8569   	-10.773926  
 774  	18.8813   	-11.636414  
 775  	18.9057   	-12.283264  
 776  	18.9301   	-13.217651  
 777  	18.9546   	-13.505127  
 778  	18.9790   	-14.223877  
 779  	19.0034   	-14.439514  
 780  	19.0278   	-15.230165  
 781  	19.0523   	-16.020752  
 782  	19.0767   	-16.236389  
 783  	19.1011   	-18.320801  
 784  	19.1255   	-18.177002  
 785  	19.1500   	-19.830139  
 786  	19.1744   	-19.255127  
 787  	19.1988   	-20.980164  
 788  	19.2233   	-21.483276  
 789  	19.2477   	-23.280151  
 790  	19.2721   	-23.639526  
 791  	19.2965   	-24.933289  
 792  	19.3210   	-26.011414  
 793  	19.3454   	-26.227051  
 794  	19.3698   	-26.945801  
 795  	19.3942   	-27.952028  
 796  	19.4187   	-28.239502  
 797  	19.4431   	-28.958252  
 798  	19.4675   	-29.892639  
 799  	19.4919   	-30.827028  
 800  	19.5164   	-30.970764  
 801  	19.5408   	-31.833252  
 802  	19.5652   	-32.695801  
 803  	19.5896   	-32.839539  
 804  	19.6141   	-34.133301  
 805  	19.6385   	-35.067627  
 806  	19.6629   	-36.002014  
 807  	19.6873   	-36.720764  
 808  	19.7118   	-37.080139  
 809  	19.7362   	-38.014526  
 810  	19.7606   	-38.373901  
 811  	19.7851   	-38.589539  
 812  	19.8095   	-39.308289  
 813  	19.8339   	-40.314514  
 814  	19.8583   	-40.817627  
 815  	19.8828   	-41.320801  
 816  	19.9072   	-42.039551  
 817  	19.9316   	-42.183289  
 818  	19.9560   	-43.261414  
 819  	19.9805   	-43.620789  
 820  	20.0049   	-43.908264  
 821  	20.0293   	-44.698914  
 822  	20.0537   	-44.123901  
 823  	20.0782   	-45.345764  
 824  	20.1026   	-45.992676  
 825  	20.1270   	-46.783264  
 826  	20.1514   	-47.430176  
 827  	20.1759   	-46.998901  
 828  	20.2003   	-47.430176  
 829  	20.2247   	-47.430176  
 830  	20.2491   	-48.077026  
 831  	20.2736   	-48.723877  
 832  	20.2980   	-48.580139  
 833  	20.3224   	-48.652039  
 834  	20.3468   	-49.802002  
 835  	20.3713   	-51.167664  
 836  	20.3957   	-51.958252  
 837  	20.4201   	-52.173889  
 838  	20.4446   	-53.108276  
 839  	20.4690   	-53.611389  
 840  	20.4934   	-53.755127  
 841  	20.5178   	-53.539551  
 842  	20.5423   	-53.683289  
 843  	20.5667   	-53.898926  
 844  	20.5911   	-54.833248  
 845  	20.6155   	-55.623901  
 846  	20.6400   	-56.270756  
 847  	20.6644   	-57.133301  
 848  	20.6888   	-57.061401  
 849  	20.7132   	-57.277039  
 850  	20.7377   	-58.498901  
 851  	20.7621   	-59.002014  
 852  	20.7865   	-60.295773  
 853  	20.8109   	-60.295773  
 854  	20.8354   	-60.798889  
 855  	20.8598   	-62.308289  
 856  	20.8842   	-61.733280  
 857  	20.9086   	-61.445805  
 858  	20.9331   	-61.805172  
 859  	20.9575   	-62.308289  
 860  	20.9819   	-62.595760  
 861  	21.0064   	-63.458252  
 862  	21.0308   	-64.464539  
 863  	21.0552   	-64.536377  
 864  	21.0796   	-64.320801  
 865  	21.1041   	-65.758301  
 866  	21.1285   	-66.980164  
 867  	21.1529   	-66.692627  
 868  	21.1773   	-66.692627  
 869  	21.2018   	-67.770752  
 870  	21.2262   	-68.202026  
 871  	21.2506   	-67.986389  
 872  	21.2750   	-68.345764  
 873  	21.2995   	-68.848877  
 874  	21.3239   	-68.848877  
 875  	21.3483   	-68.920776  
 876  	21.3727   	-69.352051  
 877  	21.3972   	-70.070801  
 878  	21.4216   	-70.645752  
 879  	21.4460   	-71.005127  
 880  	21.4704   	-72.011414  
 881  	21.4949   	-71.292664  
 882  	21.5193   	-71.436401  
 883  	21.5437   	-71.148926  
 884  	21.5681   	-71.436401  
 885  	21.5926   	-72.873901  
 886  	21.6170   	-72.442627  
 887  	21.6414   	-72.658264  
 888  	21.6659   	-73.448914  
 889  	21.6903   	-72.514526  
 890  	21.7147   	-72.945801  
 891  	21.7391   	-74.095764  
 892  	21.7636   	-73.664551  
 893  	21.7880   	-74.598877  
 894  	21.8124   	-74.527039  
 895  	21.8368   	-74.239502  
 896  	21.8613   	-72.873901  
 897  	21.8857   	-72.298889  
 898  	21.9101   	-72.730164  
 899  	21.9345   	-74.239502  
 900  	21.9590   	-74.311401  
 901  	21.9834   	-75.173889  
 902  	22.0078   	-75.389526  
 903  	22.0322   	-74.670776  
 904  	22.0567   	-75.173889  
 905  	22.0811   	-75.605164  
 906  	22.1055   	-76.323914  
 907  	22.1299   	-75.605164  
 908  	22.1544   	-76.108276  
 909  	22.1788   	-76.180176  
 910  	22.2032   	-77.402039  
 911  	22.2277   	-77.689514  
 912  	22.2521   	-78.911377  
 913  	22.2765   	-77.977051  
 914  	22.3009   	-78.623901  
 915  	22.3254   	-78.480164  
 916  	22.3498   	-77.977051  
 917  	22.3742   	-78.120789  
 918  	22.3986   	-77.977051  
 919  	22.4231   	-79.055176  
 920  	22.4475   	-78.695801  
 921  	22.4719   	-79.055176  
 922  	22.4963   	-79.055176  
 923  	22.5208   	-78.983276  
 924  	22.5452   	-79.127014  
 925  	22.5696   	-79.270752  
 926  	22.5940   	-79.630127  
 927  	22.6185   	-80.420776  
 928  	22.6429   	-79.630127  
 929  	22.6673   	-79.702026  
 930  	22.6917   	-79.486389  
 931  	22.7162   	-78.264526  
 932  	22.7406   	-79.198914  
 933  	22.7650   	-78.695801  
 934  	22.7894   	-79.055176  
 935  	22.8139   	-78.983276  
 936  	22.8383   	-79.486389  
 937  	22.8627   	-77.977051  
 938  	22.8872   	-79.270752  
 939  	22.9116   	-78.480164  
 940  	22.9360   	-79.198914  
 941  	22.9604   	-78.983276  
 942  	22.9849   	-78.623901  
 943  	23.0093   	-78.408264  
 944  	23.0337   	-79.055176  
 945  	23.0581   	-78.767639  
 946  	23.0826   	-78.120789  
 947  	23.1070   	-76.827026  
 948  	23.1314   	-77.330139  
 949  	23.1558   	-74.958252  
 950  	23.1803   	-74.311401  
 951  	23.2047   	-73.880127  
 952  	23.2291   	-72.873901  
 953  	23.2535   	-72.802002  
 954  	23.2780   	-72.083252  
 955  	23.3024   	-71.723877  
 956  	23.3268   	-70.861389  
 957  	23.3512   	-69.998901  
 958  	23.3757   	-69.352051  
 959  	23.4001   	-69.998901  
 960  	23.4245   	-69.136414  
 961  	23.4489   	-69.927002  
 962  	23.4734   	-68.920776  
 963  	23.4978   	-67.411377  
 964  	23.5222   	-65.398926  
 965  	23.5467   	-59.073914  
 966  	23.5711   	-48.148926  
 967  	23.5955   	-32.336426  
 968  	23.6199   	-18.608276  
 969  	23.6444   	-8.258301   
 970  	23.6688   	0.654175    
 971  	23.6932   	8.560425    
 972  	23.7176   	15.388551   
 973  	23.7421   	19.629272   
 974  	23.7665   	24.372925   
 975  	23.7909   	26.672974   
 976  	23.8153   	29.547974   
 977  	23.8398   	30.841677   
 978  	23.8642   	32.926147   
 979  	23.8886   	34.076050   
 980  	23.9130   	33.572998   
 981  	23.9375   	34.507324   
 982  	23.9619   	34.938599   
 983  	23.9863   	35.585449   
 984  	24.0107   	35.154175   
 985  	24.0352   	35.801147   
 986  	24.0596   	36.879272   
 987  	24.0840   	37.238647   
 988  	24.1085   	38.029175   
 989  	24.1329   	37.885498   
 990  	24.1573   	39.682373   
 991  	24.1817   	39.610474   
 992  	24.2062   	39.538574   
 993  	24.2306   	40.904175   
 994  	24.2550   	41.479248   
 995  	24.2794   	41.982300   
 996  	24.3039   	41.407349   
 997  	24.3283   	41.982300   
 998  	24.3527   	42.197998   
 999  	24.3771   	42.772949   
 1000 	24.4016   	42.197998   
 1001 	24.4260   	42.413574   
 1002 	24.4504   	42.988647   
 1003 	24.4748   	42.629272   
 1004 	24.4993   	42.629272   
 1005 	24.5237   	43.204224   
 1006 	24.5481   	42.916748   
 1007 	24.5725   	43.563599   
 1008 	24.5970   	43.779175   
 1009 	24.6214   	43.922974   
 1010 	24.6458   	44.713623   
 1011 	24.6702   	46.294800   
 1012 	24.6947   	45.432373   
 1013 	24.7191   	46.007324   
 1014 	24.7435   	45.216675   
 1015 	24.7680   	45.288574   
 1016 	24.7924   	46.582397   
 1017 	24.8168   	45.863647   
 1018 	24.8412   	45.647949   
 1019 	24.8657   	45.791748   
 1020 	24.8901   	46.223022   
 1021 	24.9145   	46.007324   
 1022 	24.9389   	47.085449   
 1023 	24.9634   	47.157349   
 1024 	24.9878   	47.301147   
 1025 	25.0122   	47.301147   
 1026 	25.0366   	47.157349   
 1027 	25.0611   	46.726074   
 1028 	25.0855   	46.223022   
 1029 	25.1099   	47.085449   
 1030 	25.1343   	48.163574   
 1031 	25.1588   	48.163574   
 1032 	25.1832   	47.229248   
 1033 	25.2076   	47.660522   
 1034 	25.2320   	48.522949   
 1035 	25.2565   	47.947998   
 1036 	25.2809   	48.019897   
 1037 	25.3053   	48.451050   
 1038 	25.3298   	49.169800   
 1039 	25.3542   	49.026123   
 1040 	25.3786   	49.026123   
 1041 	25.4030   	49.601074   
 1042 	25.4275   	51.541748   
 1043 	25.4519   	50.032349   
 1044 	25.4763   	50.176147   
 1045 	25.5007   	49.313599   
 1046 	25.5252   	49.816772   
 1047 	25.5496   	49.816772   
 1048 	25.5740   	50.247925   
 1049 	25.5984   	50.535522   
 1050 	25.6229   	49.960449   
 1051 	25.6473   	50.176147   
 1052 	25.6717   	50.894897   
 1053 	25.6961   	49.457397   
 1054 	25.7206   	50.535522   
 1055 	25.7450   	50.032349   
 1056 	25.7694   	51.613647   
 1057 	25.7938   	51.901123   
 1058 	25.8183   	51.973022   
 1059 	25.8427   	51.038574   
 1060 	25.8671   	50.607300   
 1061 	25.8915   	50.966675   
 1062 	25.9160   	50.822998   
 1063 	25.9404   	51.469849   
 1064 	25.9648   	50.822998   
 1065 	25.9893   	52.116699   
 1066 	26.0137   	52.547974   
 1067 	26.0381   	53.769897   
 1068 	26.0625   	52.835449   
 1069 	26.0870   	53.051147   
 1070 	26.1114   	53.266724   
 1071 	26.1358   	54.344845   
 1072 	26.1602   	53.769897   
 1073 	26.1847   	55.135498   
 1074 	26.2091   	56.141720   
 1075 	26.2335   	55.782352   
 1076 	26.2579   	55.638550   
 1077 	26.2824   	56.501099   
 1078 	26.3068   	56.716679   
 1079 	26.3312   	57.866699   
 1080 	26.3556   	57.723022   
 1081 	26.3801   	58.369873   
 1082 	26.4045   	60.310425   
 1083 	26.4289   	65.701050   
 1084 	26.4533   	76.194824   
 1085 	26.4778   	83.310425   
 1086 	26.5022   	89.132324   
 1087 	26.5266   	90.785522   
 1088 	26.5511   	91.576050   
 1089 	26.5755   	91.432373   
 1090 	26.5999   	90.138550   
 1091 	26.6243   	88.126099   
 1092 	26.6488   	85.394897   
 1093 	26.6732   	84.172974   
 1094 	26.6976   	82.088623   
 1095 	26.7220   	79.716675   
 1096 	26.7465   	76.697998   
 1097 	26.7709   	75.619873   
 1098 	26.7953   	74.757324   
 1099 	26.8197   	72.457397   
 1100 	26.8442   	72.026123   
 1101 	26.8686   	70.372925   
 1102 	26.8930   	69.582397   
 1103 	26.9174   	68.144897   
 1104 	26.9419   	68.144897   
 1105 	26.9663   	66.635498   
 1106 	26.9907   	65.988647   
 1107 	27.0151   	65.629272   
 1108 	27.0396   	64.191772   
 1109 	27.0640   	63.041748   
 1110 	27.0884   	62.466675   
 1111 	27.1128   	61.604244   
 1112 	27.1373   	60.957401   
 1113 	27.1617   	60.526123   
 1114 	27.1861   	59.951050   
 1115 	27.2106   	59.591675   
 1116 	27.2350   	58.801151   
 1117 	27.2594   	57.723022   
 1118 	27.2838   	57.219849   
 1119 	27.3083   	57.435425   
 1120 	27.3327   	58.441772   
 1121 	27.3571   	57.938602   
 1122 	27.3815   	57.723022   
 1123 	27.4060   	57.363644   
 1124 	27.4304   	56.285522   
 1125 	27.4548   	55.854244   
 1126 	27.4792   	56.716679   
 1127 	27.5037   	55.710449   
 1128 	27.5281   	56.429203   
 1129 	27.5525   	56.429203   
 1130 	27.5769   	56.213623   
 1131 	27.6014   	56.429203   
 1132 	27.6258   	55.494877   
 1133 	27.6502   	55.135498   
 1134 	27.6746   	54.991699   
 1135 	27.6991   	55.135498   
 1136 	27.7235   	55.926147   
 1137 	27.7479   	55.710449   
 1138 	27.7723   	54.848026   
 1139 	27.7968   	54.632320   
 1140 	27.8212   	54.344845   
 1141 	27.8456   	53.913574   
 1142 	27.8701   	54.632320   
 1143 	27.8945   	54.919804   
 1144 	27.9189   	54.272949   
 1145 	27.9433   	53.697998   
 1146 	27.9678   	53.913574   
 1147 	27.9922   	54.776123   
 1148 	28.0166   	55.494877   
 1149 	28.0410   	54.776123   
 1150 	28.0655   	54.848026   
 1151 	28.0899   	54.776123   
 1152 	28.1143   	55.207394   
 1153 	28.1387   	55.710449   
 1154 	28.1632   	54.704224   
 1155 	28.1876   	53.697998   
 1156 	28.2120   	53.194824   
 1157 	28.2364   	53.626099   
 1158 	28.2609   	54.201050   
 1159 	28.2853   	53.985474   
 1160 	28.3097   	54.776123   
 1161 	28.3341   	55.207394   
 1162 	28.3586   	54.201050   
 1163 	28.3830   	55.063599   
 1164 	28.4074   	54.848026   
 1165 	28.4319   	54.560425   
 1166 	28.4563   	53.841675   
 1167 	28.4807   	53.626099   
 1168 	28.5051   	54.129272   
 1169 	28.5296   	54.488647   
 1170 	28.5540   	53.985474   
 1171 	28.5784   	54.416748   
 1172 	28.6028   	54.272949   
 1173 	28.6273   	53.697998   
 1174 	28.6517   	52.907349   
 1175 	28.6761   	52.547974   
 1176 	28.7005   	52.691772   
 1177 	28.7250   	52.907349   
 1178 	28.7494   	52.547974   
 1179 	28.7738   	52.763550   
 1180 	28.7982   	53.194824   
 1181 	28.8227   	52.476074   
 1182 	28.8471   	52.763550   
 1183 	28.8715   	52.332397   
 1184 	28.8959   	52.476074   
 1185 	28.9204   	52.116699   
 1186 	28.9448   	51.901123   
 1187 	28.9692   	52.188599   
 1188 	28.9936   	51.326050   
 1189 	29.0181   	51.829224   
 1190 	29.0425   	52.547974   
 1191 	29.0669   	53.626099   
 1192 	29.0914   	53.266724   
 1193 	29.1158   	52.404175   
 1194 	29.1402   	52.619873   
 1195 	29.1646   	52.188599   
 1196 	29.1891   	52.763550   
 1197 	29.2135   	53.266724   
 1198 	29.2379   	52.907349   
 1199 	29.2623   	53.266724   
 1200 	29.2868   	52.691772   
 1201 	29.3112   	51.973022   
 1202 	29.3356   	51.397949   
 1203 	29.3600   	51.757324   
 1204 	29.3845   	51.541748   
 1205 	29.4089   	51.326050   
 1206 	29.4333   	51.901123   
 1207 	29.4577   	53.482300   
 1208 	29.4822   	52.404175   
 1209 	29.5066   	51.613647   
 1210 	29.5310   	51.757324   
 1211 	29.5554   	52.188599   
 1212 	29.5799   	51.397949   
 1213 	29.6043   	50.894897   
 1214 	29.6287   	51.757324   
 1215 	29.6532   	51.397949   
 1216 	29.6776   	51.110474   
 1217 	29.7020   	50.607300   
 1218 	29.7264   	51.829224   
 1219 	29.7509   	51.901123   
 1220 	29.7753   	51.685425   
 1221 	29.7997   	51.038574   
 1222 	29.8241   	51.541748   
 1223 	29.8486   	50.894897   
 1224 	29.8730   	50.966675   
 1225 	29.8974   	50.607300   
 1226 	29.9218   	50.894897   
 1227 	29.9463   	50.176147   
 1228 	29.9707   	50.894897   
 1229 	29.9951   	49.888550   
 1230 	30.0195   	50.966675   
 1231 	30.0440   	50.391724   
 1232 	30.0684   	50.391724   
 1233 	30.0928   	51.541748   
 1234 	30.1172   	50.247925   
 1235 	30.1417   	50.463623   
 1236 	30.1661   	51.397949   
 1237 	30.1905   	49.960449   
 1238 	30.2149   	50.032349   
 1239 	30.2394   	50.751099   
 1240 	30.2638   	50.607300   
 1241 	30.2882   	50.319824   
 1242 	30.3127   	50.751099   
 1243 	30.3371   	50.176147   
 1244 	30.3615   	50.032349   
 1245 	30.3859   	49.601074   
 1246 	30.4104   	48.666748   
 1247 	30.4348   	48.882324   
 1248 	30.4592   	49.457397   
 1249 	30.4836   	49.744873   
 1250 	30.5081   	48.738647   
 1251 	30.5325   	48.810425   
 1252 	30.5569   	49.672974   
 1253 	30.5813   	48.379272   
 1254 	30.6058   	48.954224   
 1255 	30.6302   	48.954224   
 1256 	30.6546   	48.954224   
 1257 	30.6790   	48.666748   
 1258 	30.7035   	47.947998   
 1259 	30.7279   	48.954224   
 1260 	30.7523   	48.738647   
 1261 	30.7767   	48.163574   
 1262 	30.8012   	48.810425   
 1263 	30.8256   	48.522949   
 1264 	30.8500   	48.810425   
 1265 	30.8745   	49.026123   
 1266 	30.8989   	49.313599   
 1267 	30.9233   	49.241699   
 1268 	30.9477   	48.235474   
 1269 	30.9722   	49.026123   
 1270 	30.9966   	48.235474   
 1271 	31.0210   	48.379272   
 1272 	31.0454   	48.451050   
 1273 	31.0699   	47.660522   
 1274 	31.0943   	46.797974   
 1275 	31.1187   	47.372925   
 1276 	31.1431   	47.588623   
 1277 	31.1676   	48.163574   
 1278 	31.1920   	49.098022   
 1279 	31.2164   	48.666748   
 1280 	31.2408   	48.307373   
 1281 	31.2653   	48.594849   
 1282 	31.2897   	48.594849   
 1283 	31.3141   	48.235474   
 1284 	31.3385   	47.660522   
 1285 	31.3630   	46.726074   
 1286 	31.3874   	46.869873   
 1287 	31.4118   	47.444824   
 1288 	31.4362   	46.797974   
 1289 	31.4607   	47.157349   
 1290 	31.4851   	47.804199   
 1291 	31.5095   	48.594849   
 1292 	31.5340   	48.810425   
 1293 	31.5584   	49.098022   
 1294 	31.5828   	48.019897   
 1295 	31.6072   	47.516724   
 1296 	31.6317   	47.516724   
 1297 	31.6561   	47.732300   
 1298 	31.6805   	48.954224   
 1299 	31.7049   	49.241699   
 1300 	31.7294   	47.947998   
 1301 	31.7538   	47.516724   
 1302 	31.7782   	47.085449   
 1303 	31.8026   	47.085449   
 1304 	31.8271   	46.941772   
 1305 	31.8515   	46.869873   
 1306 	31.8759   	47.301147   
 1307 	31.9003   	48.235474   
 1308 	31.9248   	47.660522   
 1309 	31.9492   	47.660522   
 1310 	31.9736   	47.516724   
 1311 	31.9980   	47.516724   
 1312 	32.0225   	47.804199   
 1313 	32.0469   	48.163574   
 1314 	32.0713   	47.516724   
 1315 	32.0957   	47.301147   
 1316 	32.1202   	47.588623   
 1317 	32.1446   	47.588623   
 1318 	32.1690   	47.804199   
 1319 	32.1935   	49.241699   
 1320 	32.2179   	48.019897   
 1321 	32.2423   	48.522949   
 1322 	32.2667   	48.451050   
 1323 	32.2912   	48.235474   
 1324 	32.3156   	46.654175   
 1325 	32.3400   	46.797974   
 1326 	32.3644   	47.085449   
 1327 	32.3889   	47.372925   
 1328 	32.4133   	47.444824   
 1329 	32.4377   	48.091675   
 1330 	32.4621   	47.588623   
 1331 	32.4866   	46.582397   
 1332 	32.5110   	47.229248   
 1333 	32.5354   	47.660522   
 1334 	32.5598   	47.516724   
 1335 	32.5843   	47.660522   
 1336 	32.6087   	48.091675   
 1337 	32.6331   	48.163574   
 1338 	32.6575   	48.738647   
 1339 	32.6820   	48.163574   
 1340 	32.7064   	49.601074   
 1341 	32.7308   	49.098022   
 1342 	32.7553   	49.169800   
 1343 	32.7797   	49.169800   
 1344 	32.8041   	49.169800   
 1345 	32.8285   	49.169800   
 1346 	32.8530   	48.451050   
 1347 	32.8774   	48.954224   
 1348 	32.9018   	48.738647   
 1349 	32.9262   	48.594849   
 1350 	32.9507   	48.235474   
 1351 	32.9751   	49.313599   
 1352 	32.9995   	48.522949   
 1353 	33.0239   	48.019897   
 1354 	33.0484   	47.516724   
 1355 	33.0728   	47.947998   
 1356 	33.0972   	48.091675   
 1357 	33.1216   	48.954224   
 1358 	33.1461   	48.522949   
 1359 	33.1705   	48.091675   
 1360 	33.1949   	48.235474   
 1361 	33.2193   	48.235474   
 1362 	33.2438   	47.588623   
 1363 	33.2682   	48.091675   
 1364 	33.2926   	49.241699   
 1365 	33.3170   	48.666748   
 1366 	33.3415   	49.601074   
 1367 	33.3659   	49.816772   
 1368 	33.3903   	49.026123   
 1369 	33.4148   	48.882324   
 1370 	33.4392   	48.379272   
 1371 	33.4636   	49.026123   
 1372 	33.4880   	47.588623   
 1373 	33.5125   	47.804199   
 1374 	33.5369   	47.876099   
 1375 	33.5613   	47.947998   
 1376 	33.5857   	47.013550   
 1377 	33.6102   	47.516724   
 1378 	33.6346   	47.660522   
 1379 	33.6590   	46.941772   
 1380 	33.6834   	47.804199   
 1381 	33.7079   	47.444824   
 1382 	33.7323   	46.582397   
 1383 	33.7567   	46.223022   
 1384 	33.7811   	47.660522   
 1385 	33.8056   	48.163574   
 1386 	33.8300   	47.157349   
 1387 	33.8544   	47.157349   
 1388 	33.8788   	47.229248   
 1389 	33.9033   	46.510498   
 1390 	33.9277   	46.366699   
 1391 	33.9521   	46.869873   
 1392 	33.9766   	46.941772   
 1393 	34.0010   	46.151123   
 1394 	34.0254   	46.151123   
 1395 	34.0498   	45.935425   
 1396 	34.0743   	45.001099   
 1397 	34.0987   	45.072998   
 1398 	34.1231   	44.641724   
 1399 	34.1475   	44.497925   
 1400 	34.1720   	44.785522   
 1401 	34.1964   	44.929199   
 1402 	34.2208   	44.569824   
 1403 	34.2452   	43.348022   
 1404 	34.2697   	43.419800   
 1405 	34.2941   	42.844849   
 1406 	34.3185   	42.772949   
 1407 	34.3429   	41.766724   
 1408 	34.3674   	42.557373   
 1409 	34.3918   	41.479248   
 1410 	34.4162   	41.479248   
 1411 	34.4406   	41.407349   
 1412 	34.4651   	40.473022   
 1413 	34.4895   	40.473022   
 1414 	34.5139   	39.394897   
 1415 	34.5383   	38.244873   
 1416 	34.5628   	39.035522   
 1417 	34.5872   	38.747925   
 1418 	34.6116   	37.741699   
 1419 	34.6361   	37.885498   
 1420 	34.6605   	38.172974   
 1421 	34.6849   	36.879272   
 1422 	34.7093   	37.238647   
 1423 	34.7338   	36.160522   
 1424 	34.7582   	35.657349   
 1425 	34.7826   	35.513550   
 1426 	34.8070   	34.435425   
 1427 	34.8315   	33.572998   
 1428 	34.8559   	33.572998   
 1429 	34.8803   	33.860474   
 1430 	34.9047   	33.069824   
 1431 	34.9292   	32.926147   
 1432 	34.9536   	33.716675   
 1433 	34.9780   	33.501099   
 1434 	35.0024   	31.991699   
 1435 	35.0269   	32.207397   
 1436 	35.0513   	31.991699   
 1437 	35.0757   	31.632324   
 1438 	35.1001   	31.129271   
 1439 	35.1246   	30.194824   
 1440 	35.1490   	29.404175   
 1441 	35.1734   	29.476072   
 1442 	35.1979   	29.188597   
 1443 	35.2223   	28.469849   
 1444 	35.2467   	29.044798   
 1445 	35.2711   	28.397951   
 1446 	35.2956   	28.038574   
 1447 	35.3200   	28.038574   
 1448 	35.3444   	27.966673   
 1449 	35.3688   	27.966673   
 1450 	35.3933   	27.966673   
 1451 	35.4177   	26.601074   
 1452 	35.4421   	26.601074   
 1453 	35.4665   	25.882324   
 1454 	35.4910   	24.876099   
 1455 	35.5154   	24.732300   
 1456 	35.5398   	25.019897   
 1457 	35.5642   	24.588623   
 1458 	35.5887   	23.223022   
 1459 	35.6131   	22.576050   
 1460 	35.6375   	22.576050   
 1461 	35.6619   	22.144897   
 1462 	35.6864   	20.707397   
 1463 	35.7108   	20.132324   
 1464 	35.7352   	20.348022   
 1465 	35.7596   	19.485474   
 1466 	35.7841   	18.766724   
 1467 	35.8085   	17.473022   
 1468 	35.8329   	16.682373   
 1469 	35.8574   	16.897949   
 1470 	35.8818   	15.604247   
 1471 	35.9062   	14.957397   
 1472 	35.9306   	13.447998   
 1473 	35.9551   	14.022948   
 1474 	35.9795   	13.376099   
 1475 	36.0039   	12.729248   
 1476 	36.0283   	12.297974   
 1477 	36.0528   	11.866699   
 1478 	36.0772   	12.513550   
 1479 	36.1016   	12.082397   
 1480 	36.1260   	12.082397   
 1481 	36.1505   	12.154175   
 1482 	36.1749   	11.507324   
 1483 	36.1993   	10.429199   
 1484 	36.2237   	9.422974    
 1485 	36.2482   	8.272949    
 1486 	36.2726   	8.416748    
 1487 	36.2970   	8.704224    
 1488 	36.3214   	7.913575    
 1489 	36.3459   	7.697998    
 1490 	36.3703   	6.907349    
 1491 	36.3947   	5.901123    
 1492 	36.4191   	5.254272    
 1493 	36.4436   	4.463623    
 1494 	36.4680   	3.816772    
 1495 	36.4924   	2.307373    
 1496 	36.5169   	1.947998    
 1497 	36.5413   	0.654175    
 1498 	36.5657   	1.013550    
 1499 	36.5901   	0.438599    
 1500 	36.6146   	-0.136353   
 1501 	36.6390   	-0.855102   
 1502 	36.6634   	-0.927002   
 1503 	36.6878   	-2.292603   
 1504 	36.7123   	-3.298950   
 1505 	36.7367   	-3.945801   
 1506 	36.7611   	-5.311401   
 1507 	36.7855   	-5.167664   
 1508 	36.8100   	-6.461426   
 1509 	36.8344   	-6.964539   
 1510 	36.8588   	-7.827026   
 1511 	36.8832   	-8.617676   
 1512 	36.9077   	-9.911377   
 1513 	36.9321   	-10.989502  
 1514 	36.9565   	-11.492676  
 1515 	36.9809   	-12.283264  
 1516 	37.0054   	-13.577026  
 1517 	37.0298   	-13.792665  
 1518 	37.0542   	-14.511414  
 1519 	37.0787   	-15.661377  
 1520 	37.1031   	-16.020752  
 1521 	37.1275   	-16.667664  
 1522 	37.1519   	-17.530151  
 1523 	37.1764   	-19.542664  
 1524 	37.2008   	-19.183289  
 1525 	37.2252   	-20.908264  
 1526 	37.2496   	-21.770752  
 1527 	37.2741   	-22.489502  
 1528 	37.2985   	-23.783264  
 1529 	37.3229   	-24.142639  
 1530 	37.3473   	-25.652039  
 1531 	37.3718   	-26.298889  
 1532 	37.3962   	-27.161377  
 1533 	37.4206   	-28.455137  
 1534 	37.4450   	-28.455137  
 1535 	37.4695   	-29.605164  
 1536 	37.4939   	-29.245789  
 1537 	37.5183   	-30.323914  
 1538 	37.5427   	-30.898926  
 1539 	37.5672   	-32.983276  
 1540 	37.5916   	-32.623901  
 1541 	37.6160   	-32.767639  
 1542 	37.6404   	-33.773926  
 1543 	37.6649   	-34.277039  
 1544 	37.6893   	-35.642639  
 1545 	37.7137   	-35.930176  
 1546 	37.7382   	-36.505127  
 1547 	37.7626   	-37.152039  
 1548 	37.7870   	-37.942627  
 1549 	37.8114   	-38.661377  
 1550 	37.8359   	-38.948914  
 1551 	37.8603   	-39.020752  
 1552 	37.8847   	-39.883301  
 1553 	37.9091   	-40.530151  
 1554 	37.9336   	-41.320801  
 1555 	37.9580   	-42.183289  
 1556 	37.9824   	-41.967651  
 1557 	38.0068   	-42.111389  
 1558 	38.0313   	-42.542664  
 1559 	38.0557   	-43.908264  
 1560 	38.0801   	-43.908264  
 1561 	38.1045   	-44.986389  
 1562 	38.1290   	-45.489502  
 1563 	38.1534   	-45.417664  
 1564 	38.1778   	-46.423889  
 1565 	38.2022   	-46.208252  
 1566 	38.2267   	-46.639526  
 1567 	38.2511   	-47.789551  
 1568 	38.2755   	-48.148926  
 1569 	38.3000   	-48.005127  
 1570 	38.3244   	-49.083252  
 1571 	38.3488   	-49.442627  
 1572 	38.3732   	-48.795776  
 1573 	38.3977   	-49.802002  
 1574 	38.4221   	-50.664551  
 1575 	38.4465   	-51.742676  
 1576 	38.4709   	-52.461426  
 1577 	38.4954   	-52.317627  
 1578 	38.5198   	-53.539551  
 1579 	38.5442   	-53.252014  
 1580 	38.5686   	-53.252014  
 1581 	38.5931   	-53.755127  
 1582 	38.6175   	-53.970764  
 1583 	38.6419   	-55.480164  
 1584 	38.6663   	-55.911377  
 1585 	38.6908   	-57.205139  
 1586 	38.7152   	-56.558289  
 1587 	38.7396   	-57.492680  
 1588 	38.7640   	-57.995785  
 1589 	38.7885   	-59.289555  
 1590 	38.8129   	-59.936405  
 1591 	38.8373   	-59.505127  
 1592 	38.8617   	-60.870789  
 1593 	38.8862   	-61.445805  
 1594 	38.9106   	-60.870789  
 1595 	38.9350   	-60.727051  
 1596 	38.9595   	-61.014526  
 1597 	38.9839   	-61.877018  
 1598 	39.0083   	-63.602047  
 1599 	39.0327   	-64.105164  
 1600 	39.0572   	-64.105164  
 1601 	39.0816   	-64.536377  
 1602 	39.1060   	-64.105164  
 1603 	39.1304   	-65.039551  
 1604 	39.1549   	-64.895752  
 1605 	39.1793   	-65.470764  
 1606 	39.2037   	-66.405151  
 1607 	39.2281   	-67.555176  
 1608 	39.2526   	-68.058289  
 1609 	39.2770   	-67.914551  
 1610 	39.3014   	-68.417664  
 1611 	39.3258   	-68.920776  
 1612 	39.3503   	-68.920776  
 1613 	39.3747   	-69.567627  
 1614 	39.3991   	-69.998901  
 1615 	39.4235   	-70.214539  
 1616 	39.4480   	-70.358276  
 1617 	39.4724   	-70.430176  
 1618 	39.4968   	-71.364502  
 1619 	39.5213   	-71.077026  
 1620 	39.5457   	-71.723877  
 1621 	39.5701   	-71.652039  
 1622 	39.5945   	-72.298889  
 1623 	39.6190   	-72.873901  
 1624 	39.6434   	-73.664551  
 1625 	39.6678   	-73.377014  
 1626 	39.6922   	-74.023926  
 1627 	39.7167   	-73.233276  
 1628 	39.7411   	-75.102051  
 1629 	39.7655   	-74.023926  
 1630 	39.7899   	-74.239502  
 1631 	39.8144   	-74.239502  
 1632 	39.8388   	-75.173889  
 1633 	39.8632   	-75.102051  
 1634 	39.8876   	-74.670776  
 1635 	39.9121   	-74.814514  
 1636 	39.9365   	-74.670776  
 1637 	39.9609   	-74.095764  
 1638 	39.9853   	-74.886414  
 1639 	40.0098   	-75.102051  
 1640 	40.0342   	-75.748901  
 1641 	40.0586   	-74.886414  
 1642 	40.0830   	-76.180176  
 1643 	40.1075   	-76.036377  
 1644 	40.1319   	-77.114502  
 1645 	40.1563   	-76.827026  
 1646 	40.1808   	-78.264526  
 1647 	40.2052   	-77.689514  
 1648 	40.2296   	-78.192627  
 1649 	40.2540   	-77.977051  
 1650 	40.2785   	-78.480164  
 1651 	40.3029   	-77.330139  
 1652 	40.3273   	-78.336426  
 1653 	40.3517   	-78.264526  
 1654 	40.3762   	-79.198914  
 1655 	40.4006   	-78.048889  
 1656 	40.4250   	-78.623901  
 1657 	40.4494   	-79.917664  
 1658 	40.4739   	-79.558289  
 1659 	40.4983   	-80.277039  
 1660 	40.5227   	-79.917664  
 1661 	40.5471   	-80.348877  
 1662 	40.5716   	-79.773926  
 1663 	40.5960   	-80.636414  
 1664 	40.6204   	-80.995789  
 1665 	40.6448   	-81.427002  
 1666 	40.6693   	-81.498901  
 1667 	40.6937   	-81.283264  
 1668 	40.7181   	-81.498901  
 1669 	40.7425   	-80.420776  
 1670 	40.7670   	-80.636414  
 1671 	40.7914   	-80.420776  
 1672 	40.8158   	-80.995789  
 1673 	40.8403   	-81.570801  
 1674 	40.8647   	-81.355164  
 1675 	40.8891   	-83.080139  
 1676 	40.9135   	-82.864502  
 1677 	40.9380   	-82.864502  
 1678 	40.9624   	-82.864502  
 1679 	40.9868   	-82.505127  
 1680 	41.0112   	-80.852051  
 1681 	41.0357   	-81.283264  
 1682 	41.0601   	-81.786377  
 1683 	41.0845   	-81.355164  
 1684 	41.1089   	-81.858276  
 1685 	41.1334   	-81.283264  
 1686 	41.1578   	-81.355164  
 1687 	41.1822   	-81.570801  
 1688 	41.2066   	-81.355164  
 1689 	41.2311   	-81.642639  
 1690 	41.2555   	-81.570801  
 1691 	41.2799   	-81.498901  
 1692 	41.3043   	-81.714539  
 1693 	41.3288   	-82.648926  
 1694 	41.3532   	-80.995789  
 1695 	41.3776   	-82.217651  
 1696 	41.4021   	-81.786377  
 1697 	41.4265   	-81.642639  
 1698 	41.4509   	-80.923889  
 1699 	41.4753   	-81.139526  
 1700 	41.4998   	-82.073914  
 1701 	41.5242   	-80.852051  
 1702 	41.5486   	-82.217651  
 1703 	41.5730   	-81.427002  
 1704 	41.5975   	-82.217651  
 1705 	41.6219   	-82.936401  
 1706 	41.6463   	-83.008301  
 1707 	41.6707   	-82.864502  
 1708 	41.6952   	-83.367676  
 1709 	41.7196   	-82.792664  
 1710 	41.7440   	-82.792664  
 1711 	41.7684   	-82.864502  
 1712 	41.7929   	-82.648926  
 1713 	41.8173   	-82.648926  
 1714 	41.8417   	-82.720764  
 1715 	41.8661   	-81.427002  
 1716 	41.8906   	-81.714539  
 1717 	41.9150   	-81.067627  
 1718 	41.9394   	-81.858276  
 1719 	41.9638   	-82.289551  
 1720 	41.9883   	-82.002014  
 1721 	42.0127   	-81.498901  
 1722 	42.0371   	-81.355164  
 1723 	42.0616   	-83.295776  
 1724 	42.0860   	-81.498901  
 1725 	42.1104   	-82.145752  
 1726 	42.1348   	-82.217651  
 1727 	42.1593   	-81.714539  
 1728 	42.1837   	-80.564514  
 1729 	42.2081   	-81.355164  
 1730 	42.2325   	-81.355164  
 1731 	42.2570   	-81.498901  
 1732 	42.2814   	-81.211426  
 1733 	42.3058   	-81.498901  
 1734 	42.3302   	-81.211426  
 1735 	42.3547   	-82.217651  
 1736 	42.3791   	-82.505127  
 1737 	42.4035   	-82.577026  
 1738 	42.4279   	-82.361389  
 1739 	42.4524   	-82.433289  
 1740 	42.4768   	-82.002014  
 1741 	42.5012   	-82.648926  
 1742 	42.5256   	-82.361389  
 1743 	42.5501   	-82.792664  
 1744 	42.5745   	-82.433289  
 1745 	42.5989   	-82.720764  
 1746 	42.6234   	-82.073914  
 1747 	42.6478   	-81.283264  
 1748 	42.6722   	-82.361389  
 1749 	42.6966   	-82.145752  
 1750 	42.7211   	-82.648926  
 1751 	42.7455   	-82.577026  
 1752 	42.7699   	-82.577026  
 1753 	42.7943   	-81.642639  
 1754 	42.8188   	-81.642639  
 1755 	42.8432   	-81.930176  
 1756 	42.8676   	-80.564514  
 1757 	42.8920   	-81.139526  
 1758 	42.9165   	-80.780151  
 1759 	42.9409   	-81.427002  
 1760 	42.9653   	-82.145752  
 1761 	42.9897   	-82.289551  
 1762 	43.0142   	-82.577026  
 1763 	43.0386   	-81.786377  
 1764 	43.0630   	-82.002014  
 1765 	43.0874   	-81.498901  
 1766 	43.1119   	-81.498901  
 1767 	43.1363   	-81.714539  
 1768 	43.1607   	-83.008301  
 1769 	43.1851   	-82.433289  
 1770 	43.2096   	-81.570801  
 1771 	43.2340   	-81.283264  
 1772 	43.2584   	-82.577026  
 1773 	43.2829   	-82.505127  
 1774 	43.3073   	-82.433289  
 1775 	43.3317   	-82.648926  
 1776 	43.3561   	-81.714539  
 1777 	43.3806   	-83.152039  
 1778 	43.4050   	-83.511414  
 1779 	43.4294   	-83.655151  
 1780 	43.4538   	-83.367676  
 1781 	43.4783   	-82.792664  
 1782 	43.5027   	-82.361389  
 1783 	43.5271   	-82.505127  
 1784 	43.5515   	-82.433289  
 1785 	43.5760   	-82.361389  
 1786 	43.6004   	-82.720764  
 1787 	43.6248   	-82.505127  
 1788 	43.6492   	-82.289551  
 1789 	43.6737   	-82.433289  
 1790 	43.6981   	-83.295776  
 1791 	43.7225   	-82.289551  
 1792 	43.7469   	-82.720764  
 1793 	43.7714   	-83.223877  
 1794 	43.7958   	-82.361389  
 1795 	43.8202   	-83.295776  
 1796 	43.8447   	-82.505127  
 1797 	43.8691   	-82.648926  
 1798 	43.8935   	-81.786377  
 1799 	43.9179   	-81.930176  
 1800 	43.9424   	-82.002014  
 1801 	43.9668   	-82.073914  
 1802 	43.9912   	-81.786377  
 1803 	44.0156   	-82.289551  
 1804 	44.0401   	-82.433289  
 1805 	44.0645   	-82.648926  
 1806 	44.0889   	-81.714539  
 1807 	44.1133   	-81.930176  
 1808 	44.1378   	-81.283264  
 1809 	44.1622   	-81.570801  
 1810 	44.1866   	-80.348877  
 1811 	44.2110   	-79.630127  
 1812 	44.2355   	-78.623901  
 1813 	44.2599   	-78.264526  
 1814 	44.2843   	-77.689514  
 1815 	44.3087   	-78.623901  
 1816 	44.3332   	-76.970764  
 1817 	44.3576   	-76.970764  
 1818 	44.3820   	-76.611389  
 1819 	44.4064   	-75.748901  
 1820 	44.4309   	-75.389526  
 1821 	44.4553   	-74.023926  
 1822 	44.4797   	-70.286377  
 1823 	44.5042   	-61.805172  
 1824 	44.5286   	-56.773926  
 1825 	44.5530   	-52.317627  
 1826 	44.5774   	-50.089539  
 1827 	44.6019   	-48.077026  
 1828 	44.6263   	-47.142639  
 1829 	44.6507   	-46.567627  
 1830 	44.6751   	-47.430176  
 1831 	44.6996   	-49.370789  
 1832 	44.7240   	-50.808289  
 1833 	44.7484   	-52.030151  
 1834 	44.7728   	-54.473881  
 1835 	44.7973   	-56.630123  
 1836 	44.8217   	-57.852047  
 1837 	44.8461   	-59.792667  
 1838 	44.8705   	-61.445805  
 1839 	44.8950   	-62.236393  
 1840 	44.9194   	-62.667664  
 1841 	44.9438   	-63.745792  
 1842 	44.9682   	-64.823914  
 1843 	44.9927   	-65.398926  
 1844 	45.0171   	-66.548889  
 1845 	45.0415   	-66.764526  
 1846 	45.0659   	-68.489502  
 1847 	45.0904   	-68.848877  
 1848 	45.1148   	-69.639526  
 1849 	45.1392   	-71.220764  
 1850 	45.1637   	-72.155151  
 1851 	45.1881   	-73.808289  
 1852 	45.2125   	-73.664551  
 1853 	45.2369   	-74.023926  
 1854 	45.2614   	-74.023926  
 1855 	45.2858   	-74.239502  
 1856 	45.3102   	-75.102051  
 1857 	45.3346   	-76.036377  
 1858 	45.3591   	-76.683289  
 1859 	45.3835   	-76.898926  
 1860 	45.4079   	-76.611389  
 1861 	45.4323   	-78.120789  
 1862 	45.4568   	-78.336426  
 1863 	45.4812   	-78.767639  
 1864 	45.5056   	-79.414551  
 1865 	45.5300   	-78.192627  
 1866 	45.5545   	-78.911377  
 1867 	45.5789   	-78.552002  
 1868 	45.6033   	-78.336426  
 1869 	45.6277   	-79.342651  
 1870 	45.6522   	-78.839539  
 1871 	45.6766   	-79.917664  
 1872 	45.7010   	-80.492676  
 1873 	45.7255   	-80.780151  
 1874 	45.7499   	-80.995789  
 1875 	45.7743   	-80.923889  
 1876 	45.7987   	-80.708252  
 1877 	45.8232   	-81.786377  
 1878 	45.8476   	-81.642639  
 1879 	45.8720   	-81.355164  
 1880 	45.8964   	-81.355164  
 1881 	45.9209   	-80.780151  
 1882 	45.9453   	-81.067627  
 1883 	45.9697   	-80.995789  
 1884 	45.9941   	-81.714539  
 1885 	46.0186   	-81.498901  
 1886 	46.0430   	-80.923889  
 1887 	46.0674   	-82.577026  
 1888 	46.0918   	-82.577026  
 1889 	46.1163   	-82.073914  
 1890 	46.1407   	-81.714539  
 1891 	46.1651   	-81.714539  
 1892 	46.1895   	-82.073914  
 1893 	46.2140   	-82.361389  
 1894 	46.2384   	-82.505127  
 1895 	46.2628   	-81.355164  
 1896 	46.2872   	-82.289551  
 1897 	46.3117   	-81.930176  
 1898 	46.3361   	-80.995789  
 1899 	46.3605   	-82.002014  
 1900 	46.3850   	-82.936401  
 1901 	46.4094   	-82.505127  
 1902 	46.4338   	-82.577026  
 1903 	46.4582   	-82.864502  
 1904 	46.4827   	-82.145752  
 1905 	46.5071   	-83.008301  
 1906 	46.5315   	-83.223877  
 1907 	46.5559   	-83.870789  
 1908 	46.5804   	-83.583252  
 1909 	46.6048   	-83.295776  
 1910 	46.6292   	-83.511414  
 1911 	46.6536   	-82.505127  
 1912 	46.6781   	-82.720764  
 1913 	46.7025   	-82.648926  
 1914 	46.7269   	-83.152039  
 1915 	46.7513   	-83.798889  
 1916 	46.7758   	-83.583252  
 1917 	46.8002   	-84.589539  
 1918 	46.8246   	-83.870789  
 1919 	46.8490   	-84.014526  
 1920 	46.8735   	-84.086426  
 1921 	46.8979   	-84.086426  
 1922 	46.9223   	-84.158264  
 1923 	46.9468   	-83.511414  
 1924 	46.9712   	-82.720764  
 1925 	46.9956   	-82.002014  
 1926 	47.0200   	-82.505127  
 1927 	47.0445   	-82.648926  
 1928 	47.0689   	-82.145752  
 1929 	47.0933   	-82.505127  
 1930 	47.1177   	-82.073914  
 1931 	47.1422   	-81.570801  
 1932 	47.1666   	-81.139526  
 1933 	47.1910   	-81.283264  
 1934 	47.2154   	-80.420776  
 1935 	47.2399   	-80.708252  
 1936 	47.2643   	-80.492676  
 1937 	47.2887   	-81.067627  
 1938 	47.3131   	-81.067627  
 1939 	47.3376   	-81.714539  
 1940 	47.3620   	-81.139526  
 1941 	47.3864   	-82.002014  
 1942 	47.4108   	-82.792664  
 1943 	47.4353   	-83.080139  
 1944 	47.4597   	-84.230164  
 1945 	47.4841   	-84.230164  
 1946 	47.5085   	-83.367676  
 1947 	47.5330   	-83.080139  
 1948 	47.5574   	-83.727051  
 1949 	47.5818   	-84.086426  
 1950 	47.6063   	-83.870789  
 1951 	47.6307   	-83.798889  
 1952 	47.6551   	-83.367676  
 1953 	47.6795   	-83.583252  
 1954 	47.7040   	-83.798889  
 1955 	47.7284   	-84.589539  
 1956 	47.7528   	-84.445801  
 1957 	47.7772   	-83.942627  
 1958 	47.8017   	-84.661377  
 1959 	47.8261   	-84.014526  
 1960 	47.8505   	-83.511414  
 1961 	47.8749   	-84.373901  
 1962 	47.8994   	-83.439514  
 1963 	47.9238   	-84.302002  
 1964 	47.9482   	-84.805176  
 1965 	47.9726   	-84.661377  
 1966 	47.9971   	-85.020752  
 1967 	48.0215   	-84.517639  
 1968 	48.0459   	-85.092651  
 1969 	48.0703   	-84.948914  
 1970 	48.0948   	-84.014526  
 1971 	48.1192   	-84.014526  
 1972 	48.1436   	-83.942627  
 1973 	48.1681   	-83.439514  
 1974 	48.1925   	-84.086426  
 1975 	48.2169   	-84.589539  
 1976 	48.2413   	-84.445801  
 1977 	48.2658   	-84.661377  
 1978 	48.2902   	-84.302002  
 1979 	48.3146   	-83.870789  
 1980 	48.3390   	-83.870789  
 1981 	48.3635   	-84.805176  
 1982 	48.3879   	-84.661377  
 1983 	48.4123   	-84.373901  
 1984 	48.4367   	-84.805176  
 1985 	48.4612   	-84.948914  
 1986 	48.4856   	-84.158264  
 1987 	48.5100   	-84.014526  
 1988 	48.5344   	-83.798889  
 1989 	48.5589   	-83.511414  
 1990 	48.5833   	-83.655151  
 1991 	48.6077   	-84.158264  
 1992 	48.6321   	-84.589539  
 1993 	48.6566   	-83.655151  
 1994 	48.6810   	-83.583252  
 1995 	48.7054   	-83.080139  
 1996 	48.7298   	-83.727051  
 1997 	48.7543   	-83.727051  
 1998 	48.7787   	-84.445801  
 1999 	48.8031   	-84.302002  
 2000 	48.8276   	-83.727051  
 2001 	48.8520   	-83.080139  
 2002 	48.8764   	-83.655151  
 2003 	48.9008   	-83.583252  
 2004 	48.9253   	-83.511414  
 2005 	48.9497   	-84.086426  
 2006 	48.9741   	-85.092651  
 2007 	48.9985   	-84.805176  
 2008 	49.0230   	-83.942627  
 2009 	49.0474   	-83.870789  
 2010 	49.0718   	-84.014526  
 2011 	49.0962   	-84.517639  
 2012 	49.1207   	-84.661377  
 2013 	49.1451   	-84.661377  
 2014 	49.1695   	-85.523926  
 2015 	49.1939   	-85.092651  
 2016 	49.2184   	-85.092651  
 2017 	49.2428   	-84.733276  
 2018 	49.2672   	-86.242676  
 2019 	49.2916   	-85.883301  
 2020 	49.3161   	-86.098877  
 2021 	49.3405   	-85.380127  
 2022 	49.3649   	-85.811401  
 2023 	49.3893   	-85.595764  
 2024 	49.4138   	-85.020752  
 2025 	49.4382   	-84.661377  
 2026 	49.4626   	-84.373901  
 2027 	49.4871   	-84.948914  
 2028 	49.5115   	-84.805176  
 2029 	49.5359   	-84.589539  
 2030 	49.5603   	-84.589539  
 2031 	49.5848   	-85.452026  
 2032 	49.6092   	-84.589539  
 2033 	49.6336   	-84.517639  
 2034 	49.6580   	-85.164551  
 2035 	49.6825   	-85.308289  
 2036 	49.7069   	-85.883301  
 2037 	49.7313   	-85.595764  
 2038 	49.7557   	-85.308289  
 2039 	49.7802   	-85.595764  
 2040 	49.8046   	-85.092651  
 2041 	49.8290   	-85.595764  
 2042 	49.8534   	-85.595764  
 2043 	49.8779   	-85.595764  
 2044 	49.9023   	-85.236389  
 2045 	49.9267   	-84.589539  
 2046 	49.9511   	-85.236389  
 2047 	49.9756   	-85.308289  
 2048 	50.0000   	-84.589539  

