
      	X(nS)     	Ch1(mV)      


 1    	0.0000    	-66.289246  
 2    	0.0244    	-66.217407  
 3    	0.0489    	-66.504883  
 4    	0.0733    	-67.511108  
 5    	0.0977    	-67.798645  
 6    	0.1221    	-69.020508  
 7    	0.1466    	-69.092407  
 8    	0.1710    	-69.092407  
 9    	0.1954    	-69.020508  
 10   	0.2198    	-68.373657  
 11   	0.2443    	-68.589233  
 12   	0.2687    	-68.517395  
 13   	0.2931    	-68.733032  
 14   	0.3175    	-69.523613  
 15   	0.3420    	-69.164238  
 16   	0.3664    	-68.661133  
 17   	0.3908    	-68.589233  
 18   	0.4152    	-68.445488  
 19   	0.4397    	-68.517395  
 20   	0.4641    	-68.517395  
 21   	0.4885    	-68.589233  
 22   	0.5129    	-68.804863  
 23   	0.5374    	-69.307976  
 24   	0.5618    	-68.804863  
 25   	0.5862    	-68.589233  
 26   	0.6106    	-68.086113  
 27   	0.6351    	-67.942375  
 28   	0.6595    	-67.295532  
 29   	0.6839    	-67.798645  
 30   	0.7084    	-68.229858  
 31   	0.7328    	-67.583000  
 32   	0.7572    	-67.726746  
 33   	0.7816    	-68.158020  
 34   	0.8061    	-68.301750  
 35   	0.8305    	-68.804863  
 36   	0.8549    	-69.164238  
 37   	0.8793    	-68.517395  
 38   	0.9038    	-68.373657  
 39   	0.9282    	-68.373657  
 40   	0.9526    	-68.445488  
 41   	0.9770    	-67.295532  
 42   	1.0015    	-68.086113  
 43   	1.0259    	-68.733032  
 44   	1.0503    	-68.301750  
 45   	1.0747    	-68.804863  
 46   	1.0992    	-69.020508  
 47   	1.1236    	-68.661133  
 48   	1.1480    	-68.733032  
 49   	1.1724    	-68.014282  
 50   	1.1969    	-68.014282  
 51   	1.2213    	-67.798645  
 52   	1.2457    	-67.295532  
 53   	1.2702    	-67.223625  
 54   	1.2946    	-67.870483  
 55   	1.3190    	-67.726746  
 56   	1.3434    	-67.511108  
 57   	1.3679    	-68.301750  
 58   	1.3923    	-68.661133  
 59   	1.4167    	-68.014282  
 60   	1.4411    	-68.661133  
 61   	1.4656    	-68.517395  
 62   	1.4900    	-67.870483  
 63   	1.5144    	-68.086113  
 64   	1.5388    	-67.798645  
 65   	1.5633    	-67.439270  
 66   	1.5877    	-67.583000  
 67   	1.6121    	-66.864250  
 68   	1.6365    	-67.439270  
 69   	1.6610    	-68.229858  
 70   	1.6854    	-68.229858  
 71   	1.7098    	-69.523613  
 72   	1.7342    	-69.020508  
 73   	1.7587    	-68.876770  
 74   	1.7831    	-67.942375  
 75   	1.8075    	-68.014282  
 76   	1.8319    	-68.804863  
 77   	1.8564    	-68.589233  
 78   	1.8808    	-68.661133  
 79   	1.9052    	-69.307976  
 80   	1.9297    	-69.379883  
 81   	1.9541    	-69.667351  
 82   	1.9785    	-68.589233  
 83   	2.0029    	-68.589233  
 84   	2.0274    	-67.583000  
 85   	2.0518    	-68.086113  
 86   	2.0762    	-68.229858  
 87   	2.1006    	-67.583000  
 88   	2.1251    	-67.942375  
 89   	2.1495    	-67.798645  
 90   	2.1739    	-68.661133  
 91   	2.1983    	-68.373657  
 92   	2.2228    	-67.654907  
 93   	2.2472    	-68.373657  
 94   	2.2716    	-68.086113  
 95   	2.2960    	-68.948608  
 96   	2.3205    	-68.948608  
 97   	2.3449    	-68.445488  
 98   	2.3693    	-68.517395  
 99   	2.3937    	-67.870483  
 100  	2.4182    	-68.445488  
 101  	2.4426    	-69.451775  
 102  	2.4670    	-69.092407  
 103  	2.4915    	-69.307976  
 104  	2.5159    	-68.158020  
 105  	2.5403    	-68.948608  
 106  	2.5647    	-67.870483  
 107  	2.5892    	-67.654907  
 108  	2.6136    	-68.301750  
 109  	2.6380    	-67.870483  
 110  	2.6624    	-68.445488  
 111  	2.6869    	-68.373657  
 112  	2.7113    	-67.798645  
 113  	2.7357    	-68.948608  
 114  	2.7601    	-68.086113  
 115  	2.7846    	-68.517395  
 116  	2.8090    	-67.583000  
 117  	2.8334    	-68.517395  
 118  	2.8578    	-68.589233  
 119  	2.8823    	-68.445488  
 120  	2.9067    	-68.589233  
 121  	2.9311    	-68.373657  
 122  	2.9555    	-67.726746  
 123  	2.9800    	-68.158020  
 124  	3.0044    	-68.158020  
 125  	3.0288    	-68.014282  
 126  	3.0532    	-69.092407  
 127  	3.0777    	-68.086113  
 128  	3.1021    	-66.648621  
 129  	3.1265    	-67.439270  
 130  	3.1510    	-67.726746  
 131  	3.1754    	-67.942375  
 132  	3.1998    	-67.654907  
 133  	3.2242    	-67.870483  
 134  	3.2487    	-67.439270  
 135  	3.2731    	-66.936157  
 136  	3.2975    	-66.936157  
 137  	3.3219    	-67.295532  
 138  	3.3464    	-67.583000  
 139  	3.3708    	-66.720512  
 140  	3.3952    	-67.654907  
 141  	3.4196    	-67.295532  
 142  	3.4441    	-66.720512  
 143  	3.4685    	-66.504883  
 144  	3.4929    	-66.073608  
 145  	3.5173    	-66.576782  
 146  	3.5418    	-67.007996  
 147  	3.5662    	-67.223625  
 148  	3.5906    	-67.367371  
 149  	3.6150    	-68.948608  
 150  	3.6395    	-68.158020  
 151  	3.6639    	-67.798645  
 152  	3.6883    	-68.301750  
 153  	3.7128    	-67.798645  
 154  	3.7372    	-68.014282  
 155  	3.7616    	-68.517395  
 156  	3.7860    	-68.589233  
 157  	3.8105    	-67.726746  
 158  	3.8349    	-67.654907  
 159  	3.8593    	-67.079887  
 160  	3.8837    	-67.151733  
 161  	3.9082    	-67.007996  
 162  	3.9326    	-66.576782  
 163  	3.9570    	-67.511108  
 164  	3.9814    	-67.079887  
 165  	4.0059    	-67.223625  
 166  	4.0303    	-67.870483  
 167  	4.0547    	-67.079887  
 168  	4.0791    	-66.864250  
 169  	4.1036    	-68.301750  
 170  	4.1280    	-68.086113  
 171  	4.1524    	-68.445488  
 172  	4.1768    	-68.589233  
 173  	4.2013    	-67.439270  
 174  	4.2257    	-67.870483  
 175  	4.2501    	-67.726746  
 176  	4.2745    	-67.583000  
 177  	4.2990    	-67.367371  
 178  	4.3234    	-67.223625  
 179  	4.3478    	-66.432983  
 180  	4.3723    	-66.720512  
 181  	4.3967    	-68.229858  
 182  	4.4211    	-67.295532  
 183  	4.4455    	-66.361137  
 184  	4.4700    	-66.001762  
 185  	4.4944    	-65.642387  
 186  	4.5188    	-65.498650  
 187  	4.5432    	-65.929871  
 188  	4.5677    	-65.426758  
 189  	4.5921    	-66.145508  
 190  	4.6165    	-66.217407  
 191  	4.6409    	-66.504883  
 192  	4.6654    	-66.576782  
 193  	4.6898    	-66.289246  
 194  	4.7142    	-66.217407  
 195  	4.7386    	-65.858025  
 196  	4.7631    	-65.786133  
 197  	4.7875    	-65.426758  
 198  	4.8119    	-65.283020  
 199  	4.8363    	-64.923645  
 200  	4.8608    	-64.420525  
 201  	4.8852    	-65.570496  
 202  	4.9096    	-64.851746  
 203  	4.9340    	-64.420525  
 204  	4.9585    	-63.989258  
 205  	4.9829    	-63.989258  
 206  	5.0073    	-63.414242  
 207  	5.0318    	-62.839230  
 208  	5.0562    	-63.198605  
 209  	5.0806    	-62.479858  
 210  	5.1050    	-62.120483  
 211  	5.1295    	-60.970516  
 212  	5.1539    	-58.239258  
 213  	5.1783    	-57.736145  
 214  	5.2027    	-56.011108  
 215  	5.2272    	-54.717403  
 216  	5.2516    	-54.429871  
 217  	5.2760    	-54.573605  
 218  	5.3004    	-54.789246  
 219  	5.3249    	-54.861141  
 220  	5.3493    	-54.573605  
 221  	5.3737    	-54.645508  
 222  	5.3981    	-54.573605  
 223  	5.4226    	-53.136105  
 224  	5.4470    	-52.776730  
 225  	5.4714    	-50.045528  
 226  	5.4958    	-42.570492  
 227  	5.5203    	-31.429869  
 228  	5.5447    	-10.083008  
 229  	5.5691    	9.898192    
 230  	5.5936    	21.685789   
 231  	5.6180    	33.401367   
 232  	5.6424    	40.804443   
 233  	5.6668    	47.273190   
 234  	5.6913    	51.513916   
 235  	5.7157    	53.526363   
 236  	5.7401    	56.473263   
 237  	5.7645    	57.623287   
 238  	5.7890    	58.701412   
 239  	5.8134    	59.204464   
 240  	5.8378    	59.923214   
 241  	5.8622    	59.276363   
 242  	5.8867    	60.713867   
 243  	5.9111    	60.426388   
 244  	5.9355    	61.145138   
 245  	5.9599    	61.145138   
 246  	5.9844    	61.791988   
 247  	6.0088    	62.223263   
 248  	6.0332    	62.366940   
 249  	6.0576    	62.366940   
 250  	6.0821    	62.079464   
 251  	6.1065    	61.935787   
 252  	6.1309    	62.942017   
 253  	6.1553    	64.379517   
 254  	6.1798    	64.092033   
 255  	6.2042    	64.882568   
 256  	6.2286    	64.379517   
 257  	6.2531    	63.876343   
 258  	6.2775    	63.876343   
 259  	6.3019    	64.595093   
 260  	6.3263    	64.882568   
 261  	6.3508    	64.379517   
 262  	6.3752    	63.588863   
 263  	6.3996    	64.307610   
 264  	6.4240    	64.451408   
 265  	6.4485    	64.235718   
 266  	6.4729    	63.732662   
 267  	6.4973    	65.170166   
 268  	6.5217    	64.810783   
 269  	6.5462    	65.098267   
 270  	6.5706    	65.098267   
 271  	6.5950    	65.888916   
 272  	6.6194    	65.601318   
 273  	6.6439    	65.817017   
 274  	6.6683    	66.535759   
 275  	6.6927    	65.529541   
 276  	6.7171    	66.463867   
 277  	6.7416    	65.960693   
 278  	6.7660    	66.320068   
 279  	6.7904    	67.326416   
 280  	6.8149    	66.823242   
 281  	6.8393    	65.745117   
 282  	6.8637    	67.182617   
 283  	6.8881    	67.973267   
 284  	6.9126    	67.829468   
 285  	6.9370    	68.835686   
 286  	6.9614    	67.470093   
 287  	6.9858    	69.698235   
 288  	7.0103    	69.842033   
 289  	7.0347    	69.626343   
 290  	7.0591    	69.554436   
 291  	7.0835    	70.201416   
 292  	7.1080    	69.266968   
 293  	7.1324    	68.692017   
 294  	7.1568    	68.692017   
 295  	7.1812    	68.692017   
 296  	7.2057    	69.698235   
 297  	7.2301    	68.404541   
 298  	7.2545    	68.763908   
 299  	7.2789    	68.763908   
 300  	7.3034    	69.338860   
 301  	7.3278    	69.195061   
 302  	7.3522    	70.057617   
 303  	7.3766    	69.266968   
 304  	7.4011    	70.488892   
 305  	7.4255    	69.913811   
 306  	7.4499    	68.763908   
 307  	7.4744    	68.907593   
 308  	7.4988    	69.338860   
 309  	7.5232    	69.913811   
 310  	7.5476    	70.704468   
 311  	7.5721    	70.129517   
 312  	7.5965    	70.057617   
 313  	7.6209    	71.207634   
 314  	7.6453    	70.632568   
 315  	7.6698    	69.698235   
 316  	7.6942    	69.985718   
 317  	7.7186    	70.129517   
 318  	7.7430    	70.273193   
 319  	7.7675    	70.488892   
 320  	7.7919    	69.770142   
 321  	7.8163    	69.698235   
 322  	7.8407    	70.416992   
 323  	7.8652    	70.704468   
 324  	7.8896    	70.057617   
 325  	7.9140    	70.201416   
 326  	7.9384    	69.913811   
 327  	7.9629    	70.273193   
 328  	7.9873    	70.704468   
 329  	8.0117    	71.998291   
 330  	8.0362    	72.717041   
 331  	8.0606    	73.076416   
 332  	8.0850    	72.070068   
 333  	8.1094    	71.998291   
 334  	8.1339    	71.063835   
 335  	8.1583    	70.416992   
 336  	8.1827    	70.920166   
 337  	8.2071    	71.279541   
 338  	8.2316    	70.848259   
 339  	8.2560    	70.848259   
 340  	8.2804    	69.913811   
 341  	8.3048    	69.698235   
 342  	8.3293    	69.051392   
 343  	8.3537    	68.763908   
 344  	8.3781    	69.410767   
 345  	8.4025    	69.913811   
 346  	8.4270    	69.123283   
 347  	8.4514    	69.913811   
 348  	8.4758    	70.057617   
 349  	8.5002    	69.266968   
 350  	8.5247    	69.410767   
 351  	8.5491    	70.057617   
 352  	8.5735    	70.057617   
 353  	8.5979    	69.985718   
 354  	8.6224    	70.201416   
 355  	8.6468    	69.195061   
 356  	8.6712    	70.129517   
 357  	8.6957    	69.626343   
 358  	8.7201    	69.482658   
 359  	8.7445    	69.985718   
 360  	8.7689    	70.920166   
 361  	8.7934    	71.063835   
 362  	8.8178    	70.848259   
 363  	8.8422    	69.698235   
 364  	8.8666    	70.129517   
 365  	8.8911    	70.057617   
 366  	8.9155    	70.704468   
 367  	8.9399    	71.207634   
 368  	8.9643    	70.920166   
 369  	8.9888    	72.141960   
 370  	9.0132    	71.423210   
 371  	9.0376    	71.135742   
 372  	9.0620    	71.638916   
 373  	9.0865    	70.776367   
 374  	9.1109    	70.416992   
 375  	9.1353    	70.848259   
 376  	9.1597    	70.920166   
 377  	9.1842    	70.560791   
 378  	9.2086    	70.632568   
 379  	9.2330    	71.423210   
 380  	9.2574    	71.495117   
 381  	9.2819    	70.920166   
 382  	9.3063    	71.854492   
 383  	9.3307    	71.423210   
 384  	9.3552    	71.207634   
 385  	9.3796    	70.991943   
 386  	9.4040    	71.854492   
 387  	9.4284    	72.285759   
 388  	9.4529    	71.782585   
 389  	9.4773    	71.926384   
 390  	9.5017    	71.063835   
 391  	9.5261    	70.776367   
 392  	9.5506    	71.567009   
 393  	9.5750    	72.213867   
 394  	9.5994    	71.854492   
 395  	9.6238    	73.220093   
 396  	9.6483    	71.926384   
 397  	9.6727    	71.710693   
 398  	9.6971    	71.495117   
 399  	9.7215    	71.279541   
 400  	9.7460    	72.213867   
 401  	9.7704    	71.495117   
 402  	9.7948    	70.920166   
 403  	9.8192    	70.488892   
 404  	9.8437    	70.560791   
 405  	9.8681    	70.560791   
 406  	9.8925    	70.632568   
 407  	9.9170    	70.704468   
 408  	9.9414    	70.991943   
 409  	9.9658    	71.638916   
 410  	9.9902    	71.710693   
 411  	10.0147   	71.854492   
 412  	10.0391   	72.573242   
 413  	10.0635   	70.560791   
 414  	10.0879   	71.351318   
 415  	10.1124   	71.351318   
 416  	10.1368   	70.991943   
 417  	10.1612   	70.201416   
 418  	10.1856   	69.698235   
 419  	10.2101   	70.632568   
 420  	10.2345   	70.848259   
 421  	10.2589   	70.920166   
 422  	10.2833   	70.920166   
 423  	10.3078   	70.488892   
 424  	10.3322   	71.495117   
 425  	10.3566   	71.207634   
 426  	10.3810   	70.345093   
 427  	10.4055   	70.488892   
 428  	10.4299   	69.842033   
 429  	10.4543   	70.704468   
 430  	10.4787   	71.279541   
 431  	10.5032   	73.148193   
 432  	10.5276   	72.717041   
 433  	10.5520   	71.495117   
 434  	10.5765   	72.070068   
 435  	10.6009   	71.135742   
 436  	10.6253   	71.207634   
 437  	10.6497   	70.776367   
 438  	10.6742   	70.776367   
 439  	10.6986   	71.063835   
 440  	10.7230   	71.423210   
 441  	10.7474   	71.423210   
 442  	10.7719   	71.423210   
 443  	10.7963   	70.776367   
 444  	10.8207   	70.920166   
 445  	10.8451   	70.560791   
 446  	10.8696   	71.351318   
 447  	10.8940   	70.632568   
 448  	10.9184   	70.991943   
 449  	10.9428   	71.351318   
 450  	10.9673   	70.991943   
 451  	10.9917   	72.357666   
 452  	11.0161   	71.710693   
 453  	11.0405   	71.351318   
 454  	11.0650   	71.279541   
 455  	11.0894   	71.926384   
 456  	11.1138   	71.279541   
 457  	11.1383   	71.926384   
 458  	11.1627   	71.854492   
 459  	11.1871   	70.848259   
 460  	11.2115   	69.554436   
 461  	11.2360   	69.698235   
 462  	11.2604   	70.273193   
 463  	11.2848   	69.842033   
 464  	11.3092   	69.410767   
 465  	11.3337   	69.913811   
 466  	11.3581   	70.488892   
 467  	11.3825   	70.920166   
 468  	11.4069   	72.429443   
 469  	11.4314   	70.920166   
 470  	11.4558   	72.213867   
 471  	11.4802   	71.135742   
 472  	11.5046   	70.488892   
 473  	11.5291   	71.638916   
 474  	11.5535   	70.416992   
 475  	11.5779   	70.057617   
 476  	11.6023   	69.985718   
 477  	11.6268   	70.488892   
 478  	11.6512   	70.848259   
 479  	11.6756   	72.429443   
 480  	11.7000   	72.788818   
 481  	11.7245   	72.141960   
 482  	11.7489   	71.926384   
 483  	11.7733   	71.207634   
 484  	11.7978   	70.991943   
 485  	11.8222   	70.776367   
 486  	11.8466   	70.776367   
 487  	11.8710   	70.273193   
 488  	11.8955   	71.135742   
 489  	11.9199   	70.991943   
 490  	11.9443   	71.279541   
 491  	11.9687   	71.638916   
 492  	11.9932   	71.423210   
 493  	12.0176   	71.279541   
 494  	12.0420   	69.770142   
 495  	12.0664   	70.991943   
 496  	12.0909   	70.488892   
 497  	12.1153   	70.201416   
 498  	12.1397   	69.482658   
 499  	12.1641   	68.979485   
 500  	12.1886   	69.698235   
 501  	12.2130   	70.632568   
 502  	12.2374   	70.129517   
 503  	12.2618   	69.410767   
 504  	12.2863   	69.482658   
 505  	12.3107   	69.051392   
 506  	12.3351   	69.842033   
 507  	12.3596   	69.770142   
 508  	12.3840   	69.842033   
 509  	12.4084   	69.913811   
 510  	12.4328   	68.907593   
 511  	12.4573   	69.410767   
 512  	12.4817   	68.763908   
 513  	12.5061   	67.829468   
 514  	12.5305   	67.829468   
 515  	12.5550   	67.901367   
 516  	12.5794   	67.398193   
 517  	12.6038   	67.470093   
 518  	12.6282   	67.757568   
 519  	12.6527   	67.398193   
 520  	12.6771   	68.260742   
 521  	12.7015   	68.116943   
 522  	12.7259   	68.116943   
 523  	12.7504   	68.548218   
 524  	12.7748   	67.901367   
 525  	12.7992   	67.182617   
 526  	12.8236   	68.116943   
 527  	12.8481   	68.763908   
 528  	12.8725   	67.182617   
 529  	12.8969   	67.182617   
 530  	12.9213   	67.757568   
 531  	12.9458   	67.038818   
 532  	12.9702   	67.757568   
 533  	12.9946   	67.254509   
 534  	13.0191   	68.045166   
 535  	13.0435   	67.613892   
 536  	13.0679   	66.607666   
 537  	13.0923   	66.320068   
 538  	13.1168   	66.248291   
 539  	13.1412   	65.745117   
 540  	13.1656   	66.104492   
 541  	13.1900   	66.535759   
 542  	13.2145   	66.967041   
 543  	13.2389   	66.895134   
 544  	13.2633   	66.679443   
 545  	13.2877   	66.967041   
 546  	13.3122   	67.470093   
 547  	13.3366   	67.829468   
 548  	13.3610   	66.463867   
 549  	13.3854   	66.967041   
 550  	13.4099   	66.967041   
 551  	13.4343   	66.176384   
 552  	13.4587   	66.176384   
 553  	13.4831   	66.679443   
 554  	13.5076   	67.182617   
 555  	13.5320   	67.326416   
 556  	13.5564   	65.817017   
 557  	13.5808   	66.104492   
 558  	13.6053   	66.823242   
 559  	13.6297   	67.182617   
 560  	13.6541   	67.110710   
 561  	13.6786   	67.685791   
 562  	13.7030   	67.757568   
 563  	13.7274   	68.188843   
 564  	13.7518   	68.763908   
 565  	13.7763   	67.110710   
 566  	13.8007   	67.973267   
 567  	13.8251   	67.254509   
 568  	13.8495   	66.751335   
 569  	13.8740   	68.476311   
 570  	13.8984   	68.404541   
 571  	13.9228   	67.757568   
 572  	13.9472   	68.620110   
 573  	13.9717   	68.907593   
 574  	13.9961   	67.541992   
 575  	14.0205   	67.685791   
 576  	14.0449   	67.470093   
 577  	14.0694   	67.829468   
 578  	14.0938   	67.829468   
 579  	14.1182   	68.260742   
 580  	14.1426   	68.332642   
 581  	14.1671   	67.901367   
 582  	14.1915   	67.398193   
 583  	14.2159   	67.613892   
 584  	14.2404   	67.254509   
 585  	14.2648   	68.116943   
 586  	14.2892   	68.763908   
 587  	14.3136   	68.404541   
 588  	14.3381   	69.266968   
 589  	14.3625   	66.967041   
 590  	14.3869   	67.541992   
 591  	14.4113   	67.254509   
 592  	14.4358   	67.110710   
 593  	14.4602   	67.110710   
 594  	14.4846   	66.967041   
 595  	14.5090   	67.254509   
 596  	14.5335   	66.248291   
 597  	14.5579   	67.110710   
 598  	14.5823   	68.332642   
 599  	14.6067   	68.404541   
 600  	14.6312   	68.045166   
 601  	14.6556   	68.332642   
 602  	14.6800   	68.476311   
 603  	14.7044   	69.123283   
 604  	14.7289   	67.757568   
 605  	14.7533   	67.398193   
 606  	14.7777   	68.045166   
 607  	14.8021   	68.548218   
 608  	14.8266   	68.763908   
 609  	14.8510   	67.973267   
 610  	14.8754   	68.476311   
 611  	14.8999   	67.613892   
 612  	14.9243   	67.326416   
 613  	14.9487   	67.326416   
 614  	14.9731   	67.685791   
 615  	14.9976   	67.038818   
 616  	15.0220   	67.541992   
 617  	15.0464   	67.901367   
 618  	15.0708   	67.829468   
 619  	15.0953   	68.260742   
 620  	15.1197   	68.332642   
 621  	15.1441   	67.685791   
 622  	15.1685   	67.757568   
 623  	15.1930   	67.326416   
 624  	15.2174   	66.895134   
 625  	15.2418   	66.607666   
 626  	15.2662   	67.398193   
 627  	15.2907   	67.973267   
 628  	15.3151   	67.326416   
 629  	15.3395   	68.116943   
 630  	15.3639   	67.613892   
 631  	15.3884   	66.751335   
 632  	15.4128   	66.176384   
 633  	15.4372   	66.679443   
 634  	15.4617   	65.745117   
 635  	15.4861   	66.895134   
 636  	15.5105   	66.967041   
 637  	15.5349   	66.751335   
 638  	15.5594   	65.888916   
 639  	15.5838   	65.817017   
 640  	15.6082   	65.313843   
 641  	15.6326   	65.817017   
 642  	15.6571   	66.463867   
 643  	15.6815   	66.967041   
 644  	15.7059   	67.326416   
 645  	15.7303   	67.398193   
 646  	15.7548   	66.679443   
 647  	15.7792   	66.391960   
 648  	15.8036   	66.248291   
 649  	15.8280   	66.104492   
 650  	15.8525   	66.535759   
 651  	15.8769   	65.745117   
 652  	15.9013   	65.745117   
 653  	15.9257   	66.032585   
 654  	15.9502   	64.954468   
 655  	15.9746   	65.241943   
 656  	15.9990   	66.176384   
 657  	16.0234   	64.738892   
 658  	16.0479   	65.170166   
 659  	16.0723   	64.882568   
 660  	16.0967   	63.948238   
 661  	16.1212   	63.516968   
 662  	16.1456   	63.588863   
 663  	16.1700   	63.876343   
 664  	16.1944   	63.445065   
 665  	16.2189   	61.576416   
 666  	16.2433   	61.720089   
 667  	16.2677   	61.217041   
 668  	16.2921   	60.785763   
 669  	16.3166   	59.995117   
 670  	16.3410   	59.779537   
 671  	16.3654   	60.067013   
 672  	16.3898   	59.420162   
 673  	16.4143   	59.204464   
 674  	16.4387   	58.485718   
 675  	16.4631   	58.126343   
 676  	16.4875   	59.060787   
 677  	16.5120   	57.982662   
 678  	16.5364   	57.838863   
 679  	16.5608   	57.263912   
 680  	16.5852   	57.766968   
 681  	16.6097   	57.192013   
 682  	16.6341   	56.760738   
 683  	16.6585   	55.395138   
 684  	16.6830   	54.891964   
 685  	16.7074   	55.035763   
 686  	16.7318   	54.101315   
 687  	16.7562   	52.592037   
 688  	16.7807   	51.873291   
 689  	16.8051   	51.657589   
 690  	16.8295   	51.513916   
 691  	16.8539   	51.442013   
 692  	16.8784   	51.801388   
 693  	16.9028   	51.010742   
 694  	16.9272   	51.010742   
 695  	16.9516   	50.795166   
 696  	16.9761   	50.435791   
 697  	17.0005   	49.501339   
 698  	17.0249   	48.638912   
 699  	17.0493   	49.860714   
 700  	17.0738   	49.645138   
 701  	17.0982   	49.645138   
 702  	17.1226   	49.788818   
 703  	17.1470   	48.351315   
 704  	17.1715   	48.063843   
 705  	17.1959   	46.338867   
 706  	17.2203   	45.907589   
 707  	17.2447   	45.476315   
 708  	17.2692   	45.692013   
 709  	17.2936   	45.188839   
 710  	17.3180   	44.541988   
 711  	17.3425   	43.967041   
 712  	17.3669   	43.967041   
 713  	17.3913   	42.673214   
 714  	17.4157   	41.307617   
 715  	17.4402   	40.660767   
 716  	17.4646   	41.523193   
 717  	17.4890   	40.876343   
 718  	17.5134   	40.085690   
 719  	17.5379   	39.438839   
 720  	17.5623   	38.935791   
 721  	17.5867   	38.720093   
 722  	17.6111   	37.570065   
 723  	17.6356   	37.210690   
 724  	17.6600   	37.282589   
 725  	17.6844   	36.995117   
 726  	17.7088   	36.707642   
 727  	17.7333   	35.629517   
 728  	17.7577   	34.623291   
 729  	17.7821   	33.473267   
 730  	17.8065   	32.610714   
 731  	17.8310   	31.604490   
 732  	17.8554   	31.820066   
 733  	17.8798   	31.676390   
 734  	17.9042   	29.663816   
 735  	17.9287   	29.448240   
 736  	17.9531   	29.807615   
 737  	17.9775   	29.735716   
 738  	18.0020   	29.160765   
 739  	18.0264   	27.651365   
 740  	18.0508   	27.435789   
 741  	18.0752   	27.363890   
 742  	18.0997   	26.860716   
 743  	18.1241   	25.207640   
 744  	18.1485   	25.423218   
 745  	18.1729   	24.991941   
 746  	18.1974   	24.632566   
 747  	18.2218   	24.273191   
 748  	18.2462   	23.626343   
 749  	18.2706   	23.338867   
 750  	18.2951   	22.045164   
 751  	18.3195   	22.476318   
 752  	18.3439   	21.757566   
 753  	18.3683   	20.320066   
 754  	18.3928   	19.888916   
 755  	18.4172   	19.026365   
 756  	18.4416   	18.092039   
 757  	18.4660   	17.445068   
 758  	18.4905   	16.151367   
 759  	18.5149   	15.648193   
 760  	18.5393   	15.576415   
 761  	18.5638   	13.276367   
 762  	18.5882   	13.491942   
 763  	18.6126   	12.988891   
 764  	18.6370   	12.845092   
 765  	18.6615   	11.982666   
 766  	18.6859   	11.407592   
 767  	18.7103   	10.041991   
 768  	18.7347   	9.323241    
 769  	18.7592   	7.454467    
 770  	18.7836   	7.885742    
 771  	18.8080   	7.310791    
 772  	18.8324   	6.304443    
 773  	18.8569   	5.729492    
 774  	18.8813   	5.298217    
 775  	18.9057   	4.291992    
 776  	18.9301   	3.932617    
 777  	18.9546   	2.423218    
 778  	18.9790   	0.266968    
 779  	19.0034   	0.123291    
 780  	19.0278   	-0.451782   
 781  	19.0523   	-0.954834   
 782  	19.0767   	-3.182983   
 783  	19.1011   	-3.254883   
 784  	19.1255   	-3.614258   
 785  	19.1500   	-5.051757   
 786  	19.1744   	-6.417358   
 787  	19.1988   	-8.717407   
 788  	19.2233   	-8.645508   
 789  	19.2477   	-10.226745  
 790  	19.2721   	-11.304871  
 791  	19.2965   	-12.598632  
 792  	19.3210   	-12.958008  
 793  	19.3454   	-13.533019  
 794  	19.3698   	-13.964233  
 795  	19.3942   	-13.964233  
 796  	19.4187   	-15.186156  
 797  	19.4431   	-15.329895  
 798  	19.4675   	-15.976745  
 799  	19.4919   	-16.408018  
 800  	19.5164   	-17.270508  
 801  	19.5408   	-17.989258  
 802  	19.5652   	-19.283020  
 803  	19.5896   	-19.570496  
 804  	19.6141   	-20.864258  
 805  	19.6385   	-21.726746  
 806  	19.6629   	-22.014282  
 807  	19.6873   	-22.301756  
 808  	19.7118   	-22.661131  
 809  	19.7362   	-23.236145  
 810  	19.7606   	-23.811157  
 811  	19.7851   	-23.954893  
 812  	19.8095   	-25.536131  
 813  	19.8339   	-26.111143  
 814  	19.8583   	-26.757994  
 815  	19.8828   	-26.757994  
 816  	19.9072   	-27.117369  
 817  	19.9316   	-27.333006  
 818  	19.9560   	-27.908020  
 819  	19.9805   	-28.267395  
 820  	20.0049   	-29.345518  
 821  	20.0293   	-29.848631  
 822  	20.0537   	-30.567381  
 823  	20.0782   	-30.711121  
 824  	20.1026   	-32.220516  
 825  	20.1270   	-32.364258  
 826  	20.1514   	-32.507992  
 827  	20.1759   	-32.292358  
 828  	20.2003   	-32.795532  
 829  	20.2247   	-33.083004  
 830  	20.2491   	-33.586121  
 831  	20.2736   	-34.448608  
 832  	20.2980   	-35.670528  
 833  	20.3224   	-36.101746  
 834  	20.3468   	-36.820492  
 835  	20.3713   	-37.467407  
 836  	20.3957   	-38.329895  
 837  	20.4201   	-38.833004  
 838  	20.4446   	-39.551758  
 839  	20.4690   	-39.120483  
 840  	20.4934   	-39.264282  
 841  	20.5178   	-39.479858  
 842  	20.5423   	-40.054867  
 843  	20.5667   	-40.414246  
 844  	20.5911   	-41.779907  
 845  	20.6155   	-41.995483  
 846  	20.6400   	-42.211117  
 847  	20.6644   	-43.001770  
 848  	20.6888   	-43.289246  
 849  	20.7132   	-43.720520  
 850  	20.7377   	-44.367367  
 851  	20.7621   	-45.086117  
 852  	20.7865   	-45.661129  
 853  	20.8109   	-45.661129  
 854  	20.8354   	-46.379879  
 855  	20.8598   	-46.954895  
 856  	20.8842   	-47.529907  
 857  	20.9086   	-47.961117  
 858  	20.9331   	-49.686153  
 859  	20.9575   	-50.261105  
 860  	20.9819   	-50.836121  
 861  	21.0064   	-50.404903  
 862  	21.0308   	-50.764282  
 863  	21.0552   	-51.195496  
 864  	21.0796   	-51.339233  
 865  	21.1041   	-51.411129  
 866  	21.1285   	-51.986145  
 867  	21.1529   	-53.351742  
 868  	21.1773   	-53.998653  
 869  	21.2018   	-54.286133  
 870  	21.2262   	-54.861141  
 871  	21.2506   	-54.286133  
 872  	21.2750   	-55.148621  
 873  	21.2995   	-55.579891  
 874  	21.3239   	-55.867371  
 875  	21.3483   	-56.154907  
 876  	21.3727   	-56.442379  
 877  	21.3972   	-57.664242  
 878  	21.4216   	-57.664242  
 879  	21.4460   	-58.311153  
 880  	21.4704   	-57.520504  
 881  	21.4949   	-58.742367  
 882  	21.5193   	-58.598633  
 883  	21.5437   	-59.245480  
 884  	21.5681   	-58.886105  
 885  	21.5926   	-59.101742  
 886  	21.6170   	-59.533016  
 887  	21.6414   	-59.748653  
 888  	21.6659   	-58.598633  
 889  	21.6903   	-59.029903  
 890  	21.7147   	-58.742367  
 891  	21.7391   	-58.742367  
 892  	21.7636   	-59.245480  
 893  	21.7880   	-59.245480  
 894  	21.8124   	-59.389278  
 895  	21.8368   	-59.101742  
 896  	21.8613   	-60.036133  
 897  	21.8857   	-59.676758  
 898  	21.9101   	-58.814270  
 899  	21.9345   	-59.533016  
 900  	21.9590   	-58.670528  
 901  	21.9834   	-58.598633  
 902  	22.0078   	-58.311153  
 903  	22.0322   	-59.389278  
 904  	22.0567   	-59.892391  
 905  	22.0811   	-60.251766  
 906  	22.1055   	-60.898621  
 907  	22.1299   	-60.108028  
 908  	22.1544   	-61.114254  
 909  	22.1788   	-62.048641  
 910  	22.2032   	-62.623657  
 911  	22.2277   	-62.623657  
 912  	22.2521   	-63.773617  
 913  	22.2765   	-63.989258  
 914  	22.3009   	-64.492363  
 915  	22.3254   	-64.779900  
 916  	22.3498   	-64.061157  
 917  	22.3742   	-63.989258  
 918  	22.3986   	-64.420525  
 919  	22.4231   	-63.917355  
 920  	22.4475   	-64.779900  
 921  	22.4719   	-64.420525  
 922  	22.4963   	-65.067383  
 923  	22.5208   	-64.923645  
 924  	22.5452   	-66.145508  
 925  	22.5696   	-66.001762  
 926  	22.5940   	-67.223625  
 927  	22.6185   	-66.217407  
 928  	22.6429   	-66.864250  
 929  	22.6673   	-66.648621  
 930  	22.6917   	-66.576782  
 931  	22.7162   	-66.217407  
 932  	22.7406   	-65.426758  
 933  	22.7650   	-65.642387  
 934  	22.7894   	-66.361137  
 935  	22.8139   	-67.295532  
 936  	22.8383   	-66.576782  
 937  	22.8627   	-67.439270  
 938  	22.8872   	-68.229858  
 939  	22.9116   	-67.583000  
 940  	22.9360   	-68.158020  
 941  	22.9604   	-66.936157  
 942  	22.9849   	-67.295532  
 943  	23.0093   	-67.295532  
 944  	23.0337   	-67.007996  
 945  	23.0581   	-67.295532  
 946  	23.0826   	-67.007996  
 947  	23.1070   	-66.217407  
 948  	23.1314   	-66.792358  
 949  	23.1558   	-66.864250  
 950  	23.1803   	-66.936157  
 951  	23.2047   	-67.151733  
 952  	23.2291   	-66.792358  
 953  	23.2535   	-67.007996  
 954  	23.2780   	-66.864250  
 955  	23.3024   	-66.720512  
 956  	23.3268   	-66.145508  
 957  	23.3512   	-66.361137  
 958  	23.3757   	-65.858025  
 959  	23.4001   	-65.642387  
 960  	23.4245   	-66.001762  
 961  	23.4489   	-65.354851  
 962  	23.4734   	-64.636101  
 963  	23.4978   	-65.211121  
 964  	23.5222   	-65.139275  
 965  	23.5467   	-64.995476  
 966  	23.5711   	-65.714226  
 967  	23.5955   	-66.864250  
 968  	23.6199   	-66.936157  
 969  	23.6444   	-66.576782  
 970  	23.6688   	-67.439270  
 971  	23.6932   	-69.811150  
 972  	23.7176   	-72.039246  
 973  	23.7421   	-71.895500  
 974  	23.7665   	-69.882996  
 975  	23.7909   	-67.511108  
 976  	23.8153   	-64.276733  
 977  	23.8398   	-60.754879  
 978  	23.8642   	-56.226746  
 979  	23.8886   	-52.776730  
 980  	23.9130   	-50.404903  
 981  	23.9375   	-47.386108  
 982  	23.9619   	-45.948608  
 983  	23.9863   	-45.876766  
 984  	24.0107   	-45.301758  
 985  	24.0352   	-45.158016  
 986  	24.0596   	-45.517395  
 987  	24.0840   	-45.373657  
 988  	24.1085   	-44.654907  
 989  	24.1329   	-45.229858  
 990  	24.1573   	-44.798641  
 991  	24.1817   	-45.589230  
 992  	24.2062   	-45.589230  
 993  	24.2306   	-44.726742  
 994  	24.2550   	-44.439266  
 995  	24.2794   	-43.289246  
 996  	24.3039   	-43.217403  
 997  	24.3283   	-42.426758  
 998  	24.3527   	-40.989254  
 999  	24.3771   	-40.917355  
 1000 	24.4016   	-40.486145  
 1001 	24.4260   	-39.911133  
 1002 	24.4504   	-40.773621  
 1003 	24.4748   	-41.276730  
 1004 	24.4993   	-40.917355  
 1005 	24.5237   	-42.139282  
 1006 	24.5481   	-41.492371  
 1007 	24.5725   	-42.786133  
 1008 	24.5970   	-43.001770  
 1009 	24.6214   	-42.642391  
 1010 	24.6458   	-42.354858  
 1011 	24.6702   	-41.995483  
 1012 	24.6947   	-41.851742  
 1013 	24.7191   	-42.067383  
 1014 	24.7435   	-42.714233  
 1015 	24.7680   	-43.001770  
 1016 	24.7924   	-42.211117  
 1017 	24.8168   	-41.276730  
 1018 	24.8412   	-42.426758  
 1019 	24.8657   	-40.917355  
 1020 	24.8901   	-41.132996  
 1021 	24.9145   	-40.773621  
 1022 	24.9389   	-41.420528  
 1023 	24.9634   	-42.426758  
 1024 	24.9878   	-42.211117  
 1025 	25.0122   	-43.217403  
 1026 	25.0366   	-42.858032  
 1027 	25.0611   	-43.073605  
 1028 	25.0855   	-43.217403  
 1029 	25.1099   	-41.995483  
 1030 	25.1343   	-41.061153  
 1031 	25.1588   	-42.426758  
 1032 	25.1832   	-40.845520  
 1033 	25.2076   	-41.708008  
 1034 	25.2320   	-40.701778  
 1035 	25.2565   	-41.564270  
 1036 	25.2809   	-40.989254  
 1037 	25.3053   	-40.414246  
 1038 	25.3298   	-40.270508  
 1039 	25.3542   	-39.983032  
 1040 	25.3786   	-40.342407  
 1041 	25.4030   	-40.486145  
 1042 	25.4275   	-41.492371  
 1043 	25.4519   	-41.923641  
 1044 	25.4763   	-40.917355  
 1045 	25.5007   	-41.420528  
 1046 	25.5252   	-41.420528  
 1047 	25.5496   	-40.917355  
 1048 	25.5740   	-41.420528  
 1049 	25.5984   	-41.276730  
 1050 	25.6229   	-40.989254  
 1051 	25.6473   	-39.767391  
 1052 	25.6717   	-40.198608  
 1053 	25.6961   	-40.486145  
 1054 	25.7206   	-40.126766  
 1055 	25.7450   	-40.486145  
 1056 	25.7694   	-40.845520  
 1057 	25.7938   	-39.983032  
 1058 	25.8183   	-40.198608  
 1059 	25.8427   	-40.629879  
 1060 	25.8671   	-40.198608  
 1061 	25.8915   	-40.557980  
 1062 	25.9160   	-40.126766  
 1063 	25.9404   	-40.629879  
 1064 	25.9648   	-40.917355  
 1065 	25.9893   	-40.845520  
 1066 	26.0137   	-40.270508  
 1067 	26.0381   	-38.545528  
 1068 	26.0625   	-38.617371  
 1069 	26.0870   	-38.473629  
 1070 	26.1114   	-37.754883  
 1071 	26.1358   	-37.467407  
 1072 	26.1602   	-37.108032  
 1073 	26.1847   	-37.395508  
 1074 	26.2091   	-36.101746  
 1075 	26.2335   	-35.814270  
 1076 	26.2579   	-36.101746  
 1077 	26.2824   	-35.670528  
 1078 	26.3068   	-35.598629  
 1079 	26.3312   	-34.448608  
 1080 	26.3556   	-34.376766  
 1081 	26.3801   	-32.579895  
 1082 	26.4045   	-29.776731  
 1083 	26.4289   	-20.145506  
 1084 	26.4533   	-10.586121  
 1085 	26.4778   	-3.470459   
 1086 	26.5022   	-1.170532   
 1087 	26.5266   	0.985718    
 1088 	26.5511   	0.626343    
 1089 	26.5755   	0.266968    
 1090 	26.5999   	-1.098633   
 1091 	26.6243   	-3.542358   
 1092 	26.6488   	-5.339233   
 1093 	26.6732   	-7.783020   
 1094 	26.6976   	-10.154907  
 1095 	26.7220   	-12.311156  
 1096 	26.7465   	-14.323608  
 1097 	26.7709   	-15.186156  
 1098 	26.7953   	-17.557981  
 1099 	26.8197   	-19.786133  
 1100 	26.8442   	-21.223631  
 1101 	26.8686   	-22.589231  
 1102 	26.8930   	-23.523619  
 1103 	26.9174   	-24.529907  
 1104 	26.9419   	-25.679871  
 1105 	26.9663   	-26.542358  
 1106 	26.9907   	-27.189268  
 1107 	27.0151   	-27.764280  
 1108 	27.0396   	-28.051756  
 1109 	27.0640   	-28.483030  
 1110 	27.0884   	-29.561157  
 1111 	27.1128   	-29.345518  
 1112 	27.1373   	-30.136106  
 1113 	27.1617   	-30.351746  
 1114 	27.1861   	-32.004883  
 1115 	27.2106   	-32.364258  
 1116 	27.2350   	-31.861143  
 1117 	27.2594   	-33.011105  
 1118 	27.2838   	-32.651733  
 1119 	27.3083   	-32.795532  
 1120 	27.3327   	-33.945496  
 1121 	27.3571   	-34.017395  
 1122 	27.3815   	-34.089233  
 1123 	27.4060   	-34.807983  
 1124 	27.4304   	-34.520508  
 1125 	27.4548   	-34.592407  
 1126 	27.4792   	-35.742371  
 1127 	27.5037   	-36.533020  
 1128 	27.5281   	-35.526730  
 1129 	27.5525   	-36.676758  
 1130 	27.5769   	-36.101746  
 1131 	27.6014   	-36.389278  
 1132 	27.6258   	-36.389278  
 1133 	27.6502   	-37.467407  
 1134 	27.6746   	-36.892391  
 1135 	27.6991   	-37.323608  
 1136 	27.7235   	-38.545528  
 1137 	27.7479   	-38.042355  
 1138 	27.7723   	-37.970520  
 1139 	27.7968   	-37.754883  
 1140 	27.8212   	-37.754883  
 1141 	27.8456   	-37.539242  
 1142 	27.8701   	-37.754883  
 1143 	27.8945   	-36.604858  
 1144 	27.9189   	-36.533020  
 1145 	27.9433   	-36.101746  
 1146 	27.9678   	-36.173645  
 1147 	27.9922   	-36.389278  
 1148 	28.0166   	-36.604858  
 1149 	28.0410   	-36.173645  
 1150 	28.0655   	-36.245480  
 1151 	28.0899   	-36.604858  
 1152 	28.1143   	-37.108032  
 1153 	28.1387   	-36.029903  
 1154 	28.1632   	-37.036133  
 1155 	28.1876   	-36.820492  
 1156 	28.2120   	-36.964233  
 1157 	28.2364   	-37.323608  
 1158 	28.2609   	-38.186153  
 1159 	28.2853   	-38.186153  
 1160 	28.3097   	-38.401730  
 1161 	28.3341   	-37.539242  
 1162 	28.3586   	-38.042355  
 1163 	28.3830   	-38.042355  
 1164 	28.4074   	-37.826782  
 1165 	28.4319   	-37.467407  
 1166 	28.4563   	-38.042355  
 1167 	28.4807   	-38.617371  
 1168 	28.5051   	-38.329895  
 1169 	28.5296   	-38.617371  
 1170 	28.5540   	-38.689270  
 1171 	28.5784   	-39.408016  
 1172 	28.6028   	-39.336117  
 1173 	28.6273   	-39.408016  
 1174 	28.6517   	-39.479858  
 1175 	28.6761   	-38.761105  
 1176 	28.7005   	-39.479858  
 1177 	28.7250   	-38.617371  
 1178 	28.7494   	-38.689270  
 1179 	28.7738   	-38.114254  
 1180 	28.7982   	-37.826782  
 1181 	28.8227   	-38.904903  
 1182 	28.8471   	-38.042355  
 1183 	28.8715   	-38.473629  
 1184 	28.8959   	-38.401730  
 1185 	28.9204   	-38.904903  
 1186 	28.9448   	-39.623657  
 1187 	28.9692   	-39.048645  
 1188 	28.9936   	-39.264282  
 1189 	29.0181   	-39.120483  
 1190 	29.0425   	-39.336117  
 1191 	29.0669   	-39.551758  
 1192 	29.0914   	-39.408016  
 1193 	29.1158   	-39.120483  
 1194 	29.1402   	-39.623657  
 1195 	29.1646   	-39.839233  
 1196 	29.1891   	-39.192383  
 1197 	29.2135   	-39.264282  
 1198 	29.2379   	-38.257996  
 1199 	29.2623   	-37.898621  
 1200 	29.2868   	-38.689270  
 1201 	29.3112   	-37.754883  
 1202 	29.3356   	-37.179867  
 1203 	29.3600   	-38.976746  
 1204 	29.3845   	-39.479858  
 1205 	29.4089   	-39.408016  
 1206 	29.4333   	-38.976746  
 1207 	29.4577   	-38.904903  
 1208 	29.4822   	-38.617371  
 1209 	29.5066   	-38.976746  
 1210 	29.5310   	-39.048645  
 1211 	29.5554   	-39.408016  
 1212 	29.5799   	-39.336117  
 1213 	29.6043   	-40.126766  
 1214 	29.6287   	-40.270508  
 1215 	29.6532   	-39.551758  
 1216 	29.6776   	-39.911133  
 1217 	29.7020   	-39.839233  
 1218 	29.7264   	-39.551758  
 1219 	29.7509   	-39.048645  
 1220 	29.7753   	-39.479858  
 1221 	29.7997   	-40.126766  
 1222 	29.8241   	-39.983032  
 1223 	29.8486   	-39.408016  
 1224 	29.8730   	-40.054867  
 1225 	29.8974   	-40.414246  
 1226 	29.9218   	-39.767391  
 1227 	29.9463   	-39.767391  
 1228 	29.9707   	-39.048645  
 1229 	29.9951   	-39.048645  
 1230 	30.0195   	-39.336117  
 1231 	30.0440   	-39.120483  
 1232 	30.0684   	-40.126766  
 1233 	30.0928   	-40.126766  
 1234 	30.1172   	-40.054867  
 1235 	30.1417   	-39.336117  
 1236 	30.1661   	-39.767391  
 1237 	30.1905   	-39.264282  
 1238 	30.2149   	-39.336117  
 1239 	30.2394   	-39.767391  
 1240 	30.2638   	-39.767391  
 1241 	30.2882   	-39.623657  
 1242 	30.3127   	-39.767391  
 1243 	30.3371   	-39.983032  
 1244 	30.3615   	-39.911133  
 1245 	30.3859   	-39.983032  
 1246 	30.4104   	-39.767391  
 1247 	30.4348   	-40.270508  
 1248 	30.4592   	-40.557980  
 1249 	30.4836   	-40.629879  
 1250 	30.5081   	-39.479858  
 1251 	30.5325   	-39.767391  
 1252 	30.5569   	-39.911133  
 1253 	30.5813   	-39.479858  
 1254 	30.6058   	-39.336117  
 1255 	30.6302   	-40.773621  
 1256 	30.6546   	-40.198608  
 1257 	30.6790   	-40.917355  
 1258 	30.7035   	-40.917355  
 1259 	30.7279   	-39.983032  
 1260 	30.7523   	-40.342407  
 1261 	30.7767   	-39.767391  
 1262 	30.8012   	-39.264282  
 1263 	30.8256   	-40.054867  
 1264 	30.8500   	-39.983032  
 1265 	30.8745   	-39.408016  
 1266 	30.8989   	-39.120483  
 1267 	30.9233   	-39.408016  
 1268 	30.9477   	-38.761105  
 1269 	30.9722   	-38.976746  
 1270 	30.9966   	-39.120483  
 1271 	31.0210   	-39.839233  
 1272 	31.0454   	-39.911133  
 1273 	31.0699   	-40.486145  
 1274 	31.0943   	-40.126766  
 1275 	31.1187   	-39.551758  
 1276 	31.1431   	-39.623657  
 1277 	31.1676   	-40.270508  
 1278 	31.1920   	-40.342407  
 1279 	31.2164   	-40.486145  
 1280 	31.2408   	-39.408016  
 1281 	31.2653   	-38.976746  
 1282 	31.2897   	-39.048645  
 1283 	31.3141   	-40.054867  
 1284 	31.3385   	-39.911133  
 1285 	31.3630   	-39.839233  
 1286 	31.3874   	-40.198608  
 1287 	31.4118   	-40.629879  
 1288 	31.4362   	-40.701778  
 1289 	31.4607   	-40.126766  
 1290 	31.4851   	-40.557980  
 1291 	31.5095   	-40.989254  
 1292 	31.5340   	-40.989254  
 1293 	31.5584   	-39.767391  
 1294 	31.5828   	-39.983032  
 1295 	31.6072   	-40.414246  
 1296 	31.6317   	-41.061153  
 1297 	31.6561   	-41.204895  
 1298 	31.6805   	-41.348629  
 1299 	31.7049   	-40.701778  
 1300 	31.7294   	-39.551758  
 1301 	31.7538   	-40.270508  
 1302 	31.7782   	-39.839233  
 1303 	31.8026   	-40.414246  
 1304 	31.8271   	-40.773621  
 1305 	31.8515   	-40.486145  
 1306 	31.8759   	-40.270508  
 1307 	31.9003   	-39.839233  
 1308 	31.9248   	-41.132996  
 1309 	31.9492   	-40.845520  
 1310 	31.9736   	-41.348629  
 1311 	31.9980   	-41.348629  
 1312 	32.0225   	-41.492371  
 1313 	32.0469   	-40.629879  
 1314 	32.0713   	-40.773621  
 1315 	32.0957   	-40.845520  
 1316 	32.1202   	-40.917355  
 1317 	32.1446   	-40.486145  
 1318 	32.1690   	-40.126766  
 1319 	32.1935   	-40.342407  
 1320 	32.2179   	-40.414246  
 1321 	32.2423   	-40.701778  
 1322 	32.2667   	-40.198608  
 1323 	32.2912   	-40.701778  
 1324 	32.3156   	-40.198608  
 1325 	32.3400   	-40.486145  
 1326 	32.3644   	-40.054867  
 1327 	32.3889   	-40.198608  
 1328 	32.4133   	-40.054867  
 1329 	32.4377   	-40.054867  
 1330 	32.4621   	-40.054867  
 1331 	32.4866   	-39.408016  
 1332 	32.5110   	-39.767391  
 1333 	32.5354   	-40.414246  
 1334 	32.5598   	-39.983032  
 1335 	32.5843   	-39.551758  
 1336 	32.6087   	-39.336117  
 1337 	32.6331   	-40.557980  
 1338 	32.6575   	-40.054867  
 1339 	32.6820   	-41.132996  
 1340 	32.7064   	-40.557980  
 1341 	32.7308   	-40.917355  
 1342 	32.7553   	-40.701778  
 1343 	32.7797   	-40.773621  
 1344 	32.8041   	-40.773621  
 1345 	32.8285   	-41.061153  
 1346 	32.8530   	-41.348629  
 1347 	32.8774   	-41.851742  
 1348 	32.9018   	-41.492371  
 1349 	32.9262   	-42.283016  
 1350 	32.9507   	-41.420528  
 1351 	32.9751   	-41.492371  
 1352 	32.9995   	-41.420528  
 1353 	33.0239   	-40.054867  
 1354 	33.0484   	-40.629879  
 1355 	33.0728   	-39.983032  
 1356 	33.0972   	-40.773621  
 1357 	33.1216   	-40.414246  
 1358 	33.1461   	-40.126766  
 1359 	33.1705   	-39.911133  
 1360 	33.1949   	-40.557980  
 1361 	33.2193   	-40.989254  
 1362 	33.2438   	-41.995483  
 1363 	33.2682   	-41.348629  
 1364 	33.2926   	-41.995483  
 1365 	33.3170   	-41.204895  
 1366 	33.3415   	-41.779907  
 1367 	33.3659   	-40.557980  
 1368 	33.3903   	-41.132996  
 1369 	33.4148   	-40.701778  
 1370 	33.4392   	-40.989254  
 1371 	33.4636   	-41.492371  
 1372 	33.4880   	-41.779907  
 1373 	33.5125   	-41.923641  
 1374 	33.5369   	-43.289246  
 1375 	33.5613   	-44.942383  
 1376 	33.5857   	-46.379879  
 1377 	33.6102   	-48.751770  
 1378 	33.6346   	-49.757996  
 1379 	33.6590   	-50.764282  
 1380 	33.6834   	-51.123657  
 1381 	33.7079   	-51.267391  
 1382 	33.7323   	-50.404903  
 1383 	33.7567   	-49.254883  
 1384 	33.7811   	-47.601742  
 1385 	33.8056   	-43.864254  
 1386 	33.8300   	-41.995483  
 1387 	33.8544   	-42.498657  
 1388 	33.8788   	-41.851742  
 1389 	33.9033   	-41.923641  
 1390 	33.9277   	-41.851742  
 1391 	33.9521   	-37.970520  
 1392 	33.9766   	-33.514278  
 1393 	34.0010   	-30.279905  
 1394 	34.0254   	-28.267395  
 1395 	34.0498   	-27.189268  
 1396 	34.0743   	-27.261106  
 1397 	34.0987   	-26.686157  
 1398 	34.1231   	-28.986143  
 1399 	34.1475   	-29.920530  
 1400 	34.1720   	-32.148617  
 1401 	34.1964   	-34.161133  
 1402 	34.2208   	-37.036133  
 1403 	34.2452   	-39.336117  
 1404 	34.2697   	-41.348629  
 1405 	34.2941   	-41.923641  
 1406 	34.3185   	-43.001770  
 1407 	34.3429   	-43.217403  
 1408 	34.3674   	-43.073605  
 1409 	34.3918   	-43.001770  
 1410 	34.4162   	-43.073605  
 1411 	34.4406   	-41.923641  
 1412 	34.4651   	-41.420528  
 1413 	34.4895   	-41.204895  
 1414 	34.5139   	-40.989254  
 1415 	34.5383   	-40.917355  
 1416 	34.5628   	-41.851742  
 1417 	34.5872   	-41.995483  
 1418 	34.6116   	-41.995483  
 1419 	34.6361   	-42.283016  
 1420 	34.6605   	-42.570492  
 1421 	34.6849   	-42.426758  
 1422 	34.7093   	-42.354858  
 1423 	34.7338   	-41.923641  
 1424 	34.7582   	-42.642391  
 1425 	34.7826   	-43.001770  
 1426 	34.8070   	-42.858032  
 1427 	34.8315   	-43.145504  
 1428 	34.8559   	-43.073605  
 1429 	34.8803   	-43.289246  
 1430 	34.9047   	-43.864254  
 1431 	34.9292   	-44.367367  
 1432 	34.9536   	-44.870483  
 1433 	34.9780   	-45.014282  
 1434 	35.0024   	-45.086117  
 1435 	35.0269   	-45.373657  
 1436 	35.0513   	-45.014282  
 1437 	35.0757   	-44.511108  
 1438 	35.1001   	-44.511108  
 1439 	35.1246   	-44.151733  
 1440 	35.1490   	-43.576778  
 1441 	35.1734   	-44.223633  
 1442 	35.1979   	-43.936153  
 1443 	35.2223   	-44.654907  
 1444 	35.2467   	-44.439266  
 1445 	35.2711   	-45.086117  
 1446 	35.2956   	-46.451782  
 1447 	35.3200   	-46.164246  
 1448 	35.3444   	-47.026733  
 1449 	35.3688   	-46.667358  
 1450 	35.3933   	-46.667358  
 1451 	35.4177   	-46.307983  
 1452 	35.4421   	-47.314270  
 1453 	35.4665   	-47.098629  
 1454 	35.4910   	-46.882992  
 1455 	35.5154   	-46.451782  
 1456 	35.5398   	-46.451782  
 1457 	35.5642   	-45.589230  
 1458 	35.5887   	-45.733032  
 1459 	35.6131   	-46.236141  
 1460 	35.6375   	-46.020504  
 1461 	35.6619   	-44.798641  
 1462 	35.6864   	-45.876766  
 1463 	35.7108   	-45.804871  
 1464 	35.7352   	-46.882992  
 1465 	35.7596   	-47.242367  
 1466 	35.7841   	-46.954895  
 1467 	35.8085   	-47.529907  
 1468 	35.8329   	-48.033020  
 1469 	35.8574   	-47.817379  
 1470 	35.8818   	-47.745483  
 1471 	35.9062   	-47.170532  
 1472 	35.9306   	-47.961117  
 1473 	35.9551   	-48.104855  
 1474 	35.9795   	-47.889278  
 1475 	36.0039   	-47.314270  
 1476 	36.0283   	-46.811157  
 1477 	36.0528   	-47.242367  
 1478 	36.0772   	-46.882992  
 1479 	36.1016   	-47.673645  
 1480 	36.1260   	-47.529907  
 1481 	36.1505   	-48.104855  
 1482 	36.1749   	-48.248653  
 1483 	36.1993   	-48.464230  
 1484 	36.2237   	-49.039242  
 1485 	36.2482   	-48.464230  
 1486 	36.2726   	-48.464230  
 1487 	36.2970   	-49.398621  
 1488 	36.3214   	-49.829891  
 1489 	36.3459   	-49.039242  
 1490 	36.3703   	-48.967403  
 1491 	36.3947   	-49.829891  
 1492 	36.4191   	-49.757996  
 1493 	36.4436   	-50.404903  
 1494 	36.4680   	-51.195496  
 1495 	36.4924   	-50.476746  
 1496 	36.5169   	-50.620483  
 1497 	36.5413   	-50.404903  
 1498 	36.5657   	-50.692379  
 1499 	36.5901   	-51.339233  
 1500 	36.6146   	-51.554867  
 1501 	36.6390   	-51.339233  
 1502 	36.6634   	-51.770504  
 1503 	36.6878   	-51.411129  
 1504 	36.7123   	-50.692379  
 1505 	36.7367   	-51.626766  
 1506 	36.7611   	-51.339233  
 1507 	36.7855   	-52.057983  
 1508 	36.8100   	-52.345520  
 1509 	36.8344   	-51.986145  
 1510 	36.8588   	-52.201782  
 1511 	36.8832   	-52.345520  
 1512 	36.9077   	-52.776730  
 1513 	36.9321   	-53.495480  
 1514 	36.9565   	-53.495480  
 1515 	36.9809   	-52.848629  
 1516 	37.0054   	-53.423645  
 1517 	37.0298   	-53.351742  
 1518 	37.0542   	-53.567383  
 1519 	37.0787   	-54.142391  
 1520 	37.1031   	-53.351742  
 1521 	37.1275   	-53.854855  
 1522 	37.1519   	-55.148621  
 1523 	37.1764   	-55.292355  
 1524 	37.2008   	-54.861141  
 1525 	37.2252   	-54.932980  
 1526 	37.2496   	-54.717403  
 1527 	37.2741   	-55.148621  
 1528 	37.2985   	-55.364254  
 1529 	37.3229   	-55.651733  
 1530 	37.3473   	-55.292355  
 1531 	37.3718   	-55.292355  
 1532 	37.3962   	-56.658016  
 1533 	37.4206   	-56.370483  
 1534 	37.4450   	-56.729858  
 1535 	37.4695   	-56.370483  
 1536 	37.4939   	-57.089233  
 1537 	37.5183   	-57.520504  
 1538 	37.5427   	-58.167355  
 1539 	37.5672   	-59.101742  
 1540 	37.5916   	-59.101742  
 1541 	37.6160   	-59.604855  
 1542 	37.6404   	-59.101742  
 1543 	37.6649   	-58.167355  
 1544 	37.6893   	-59.317383  
 1545 	37.7137   	-59.676758  
 1546 	37.7382   	-59.173641  
 1547 	37.7626   	-58.958008  
 1548 	37.7870   	-57.807980  
 1549 	37.8114   	-57.879879  
 1550 	37.8359   	-58.239258  
 1551 	37.8603   	-58.167355  
 1552 	37.8847   	-58.742367  
 1553 	37.9091   	-59.245480  
 1554 	37.9336   	-59.389278  
 1555 	37.9580   	-59.820496  
 1556 	37.9824   	-60.251766  
 1557 	38.0068   	-59.964230  
 1558 	38.0313   	-60.467403  
 1559 	38.0557   	-59.892391  
 1560 	38.0801   	-60.036133  
 1561 	38.1045   	-59.820496  
 1562 	38.1290   	-59.604855  
 1563 	38.1534   	-59.676758  
 1564 	38.1778   	-60.036133  
 1565 	38.2022   	-61.257996  
 1566 	38.2267   	-60.826782  
 1567 	38.2511   	-61.257996  
 1568 	38.2755   	-61.473629  
 1569 	38.3000   	-61.473629  
 1570 	38.3244   	-61.114254  
 1571 	38.3488   	-61.904907  
 1572 	38.3732   	-61.904907  
 1573 	38.3977   	-62.264282  
 1574 	38.4221   	-62.695492  
 1575 	38.4465   	-62.695492  
 1576 	38.4709   	-62.551754  
 1577 	38.4954   	-62.408020  
 1578 	38.5198   	-62.839230  
 1579 	38.5442   	-62.695492  
 1580 	38.5686   	-62.911129  
 1581 	38.5931   	-62.983028  
 1582 	38.6175   	-62.336117  
 1583 	38.6419   	-63.126770  
 1584 	38.6663   	-62.192379  
 1585 	38.6908   	-62.192379  
 1586 	38.7152   	-63.486145  
 1587 	38.7396   	-64.276733  
 1588 	38.7640   	-64.204895  
 1589 	38.7885   	-63.845520  
 1590 	38.8129   	-63.629883  
 1591 	38.8373   	-63.557980  
 1592 	38.8617   	-63.270504  
 1593 	38.8862   	-63.198605  
 1594 	38.9106   	-63.198605  
 1595 	38.9350   	-63.198605  
 1596 	38.9595   	-63.270504  
 1597 	38.9839   	-63.270504  
 1598 	39.0083   	-63.773617  
 1599 	39.0327   	-64.348633  
 1600 	39.0572   	-64.492363  
 1601 	39.0816   	-65.498650  
 1602 	39.1060   	-64.923645  
 1603 	39.1304   	-64.276733  
 1604 	39.1549   	-64.204895  
 1605 	39.1793   	-64.204895  
 1606 	39.2037   	-63.486145  
 1607 	39.2281   	-63.989258  
 1608 	39.2526   	-63.845520  
 1609 	39.2770   	-64.132988  
 1610 	39.3014   	-64.564270  
 1611 	39.3258   	-65.283020  
 1612 	39.3503   	-65.067383  
 1613 	39.3747   	-65.714226  
 1614 	39.3991   	-65.642387  
 1615 	39.4235   	-65.642387  
 1616 	39.4480   	-66.361137  
 1617 	39.4724   	-67.223625  
 1618 	39.4968   	-67.151733  
 1619 	39.5213   	-67.223625  
 1620 	39.5457   	-67.870483  
 1621 	39.5701   	-67.798645  
 1622 	39.5945   	-67.007996  
 1623 	39.6190   	-67.007996  
 1624 	39.6434   	-66.217407  
 1625 	39.6678   	-66.936157  
 1626 	39.6922   	-66.792358  
 1627 	39.7167   	-67.942375  
 1628 	39.7411   	-67.798645  
 1629 	39.7655   	-67.151733  
 1630 	39.7899   	-67.151733  
 1631 	39.8144   	-67.295532  
 1632 	39.8388   	-67.439270  
 1633 	39.8632   	-67.798645  
 1634 	39.8876   	-67.654907  
 1635 	39.9121   	-67.367371  
 1636 	39.9365   	-67.654907  
 1637 	39.9609   	-67.583000  
 1638 	39.9853   	-66.648621  
 1639 	40.0098   	-67.007996  
 1640 	40.0342   	-67.223625  
 1641 	40.0586   	-66.936157  
 1642 	40.0830   	-67.151733  
 1643 	40.1075   	-67.654907  
 1644 	40.1319   	-68.086113  
 1645 	40.1563   	-68.229858  
 1646 	40.1808   	-67.583000  
 1647 	40.2052   	-68.301750  
 1648 	40.2296   	-67.367371  
 1649 	40.2540   	-67.511108  
 1650 	40.2785   	-67.511108  
 1651 	40.3029   	-67.439270  
 1652 	40.3273   	-67.151733  
 1653 	40.3517   	-67.870483  
 1654 	40.3762   	-68.229858  
 1655 	40.4006   	-67.870483  
 1656 	40.4250   	-67.798645  
 1657 	40.4494   	-67.942375  
 1658 	40.4739   	-69.020508  
 1659 	40.4983   	-68.229858  
 1660 	40.5227   	-68.158020  
 1661 	40.5471   	-68.301750  
 1662 	40.5716   	-68.733032  
 1663 	40.5960   	-68.948608  
 1664 	40.6204   	-68.589233  
 1665 	40.6448   	-68.373657  
 1666 	40.6693   	-68.373657  
 1667 	40.6937   	-68.517395  
 1668 	40.7181   	-68.948608  
 1669 	40.7425   	-68.948608  
 1670 	40.7670   	-69.236145  
 1671 	40.7914   	-69.236145  
 1672 	40.8158   	-69.595520  
 1673 	40.8403   	-68.948608  
 1674 	40.8647   	-69.882996  
 1675 	40.8891   	-69.667351  
 1676 	40.9135   	-68.876770  
 1677 	40.9380   	-69.882996  
 1678 	40.9624   	-69.451775  
 1679 	40.9868   	-69.092407  
 1680 	41.0112   	-69.882996  
 1681 	41.0357   	-69.307976  
 1682 	41.0601   	-69.092407  
 1683 	41.0845   	-69.954895  
 1684 	41.1089   	-68.948608  
 1685 	41.1334   	-69.523613  
 1686 	41.1578   	-69.092407  
 1687 	41.1822   	-69.811150  
 1688 	41.2066   	-69.739258  
 1689 	41.2311   	-69.236145  
 1690 	41.2555   	-69.811150  
 1691 	41.2799   	-70.386101  
 1692 	41.3043   	-69.020508  
 1693 	41.3288   	-69.379883  
 1694 	41.3532   	-68.733032  
 1695 	41.3776   	-69.595520  
 1696 	41.4021   	-69.307976  
 1697 	41.4265   	-69.307976  
 1698 	41.4509   	-68.733032  
 1699 	41.4753   	-70.026726  
 1700 	41.4998   	-69.523613  
 1701 	41.5242   	-69.236145  
 1702 	41.5486   	-69.739258  
 1703 	41.5730   	-69.595520  
 1704 	41.5975   	-68.876770  
 1705 	41.6219   	-69.954895  
 1706 	41.6463   	-70.026726  
 1707 	41.6707   	-69.307976  
 1708 	41.6952   	-69.811150  
 1709 	41.7196   	-70.889275  
 1710 	41.7440   	-70.601746  
 1711 	41.7684   	-70.817383  
 1712 	41.7929   	-70.529900  
 1713 	41.8173   	-70.242371  
 1714 	41.8417   	-70.817383  
 1715 	41.8661   	-69.954895  
 1716 	41.8906   	-70.026726  
 1717 	41.9150   	-69.739258  
 1718 	41.9394   	-70.242371  
 1719 	41.9638   	-70.314270  
 1720 	41.9883   	-69.379883  
 1721 	42.0127   	-69.092407  
 1722 	42.0371   	-69.667351  
 1723 	42.0616   	-68.301750  
 1724 	42.0860   	-68.948608  
 1725 	42.1104   	-69.451775  
 1726 	42.1348   	-69.451775  
 1727 	42.1593   	-68.804863  
 1728 	42.1837   	-69.523613  
 1729 	42.2081   	-69.164238  
 1730 	42.2325   	-69.379883  
 1731 	42.2570   	-68.804863  
 1732 	42.2814   	-68.661133  
 1733 	42.3058   	-68.733032  
 1734 	42.3302   	-68.373657  
 1735 	42.3547   	-69.451775  
 1736 	42.3791   	-70.098633  
 1737 	42.4035   	-69.523613  
 1738 	42.4279   	-69.164238  
 1739 	42.4524   	-70.098633  
 1740 	42.4768   	-69.667351  
 1741 	42.5012   	-68.876770  
 1742 	42.5256   	-69.523613  
 1743 	42.5501   	-69.379883  
 1744 	42.5745   	-69.164238  
 1745 	42.5989   	-70.026726  
 1746 	42.6234   	-69.667351  
 1747 	42.6478   	-69.811150  
 1748 	42.6722   	-70.529900  
 1749 	42.6966   	-70.458008  
 1750 	42.7211   	-69.811150  
 1751 	42.7455   	-69.954895  
 1752 	42.7699   	-69.020508  
 1753 	42.7943   	-70.242371  
 1754 	42.8188   	-70.314270  
 1755 	42.8432   	-69.164238  
 1756 	42.8676   	-68.804863  
 1757 	42.8920   	-68.373657  
 1758 	42.9165   	-68.086113  
 1759 	42.9409   	-68.733032  
 1760 	42.9653   	-68.229858  
 1761 	42.9897   	-69.236145  
 1762 	43.0142   	-68.804863  
 1763 	43.0386   	-68.158020  
 1764 	43.0630   	-69.236145  
 1765 	43.0874   	-69.667351  
 1766 	43.1119   	-68.589233  
 1767 	43.1363   	-68.589233  
 1768 	43.1607   	-68.804863  
 1769 	43.1851   	-67.870483  
 1770 	43.2096   	-67.511108  
 1771 	43.2340   	-68.589233  
 1772 	43.2584   	-69.307976  
 1773 	43.2829   	-69.523613  
 1774 	43.3073   	-69.020508  
 1775 	43.3317   	-69.739258  
 1776 	43.3561   	-69.595520  
 1777 	43.3806   	-69.882996  
 1778 	43.4050   	-69.307976  
 1779 	43.4294   	-70.529900  
 1780 	43.4538   	-70.242371  
 1781 	43.4783   	-70.386101  
 1782 	43.5027   	-69.667351  
 1783 	43.5271   	-69.164238  
 1784 	43.5515   	-69.236145  
 1785 	43.5760   	-67.942375  
 1786 	43.6004   	-67.870483  
 1787 	43.6248   	-67.654907  
 1788 	43.6492   	-67.726746  
 1789 	43.6737   	-67.870483  
 1790 	43.6981   	-68.661133  
 1791 	43.7225   	-68.445488  
 1792 	43.7469   	-68.086113  
 1793 	43.7714   	-68.158020  
 1794 	43.7958   	-68.086113  
 1795 	43.8202   	-67.798645  
 1796 	43.8447   	-68.661133  
 1797 	43.8691   	-68.876770  
 1798 	43.8935   	-69.811150  
 1799 	43.9179   	-70.386101  
 1800 	43.9424   	-70.961121  
 1801 	43.9668   	-71.320496  
 1802 	43.9912   	-71.248657  
 1803 	44.0156   	-70.961121  
 1804 	44.0401   	-70.026726  
 1805 	44.0645   	-69.667351  
 1806 	44.0889   	-70.529900  
 1807 	44.1133   	-70.170525  
 1808 	44.1378   	-69.667351  
 1809 	44.1622   	-69.739258  
 1810 	44.1866   	-70.817383  
 1811 	44.2110   	-70.601746  
 1812 	44.2355   	-71.248657  
 1813 	44.2599   	-71.679871  
 1814 	44.2843   	-70.098633  
 1815 	44.3087   	-69.595520  
 1816 	44.3332   	-68.876770  
 1817 	44.3576   	-69.092407  
 1818 	44.3820   	-68.229858  
 1819 	44.4064   	-67.367371  
 1820 	44.4309   	-68.804863  
 1821 	44.4553   	-68.158020  
 1822 	44.4797   	-68.301750  
 1823 	44.5042   	-67.654907  
 1824 	44.5286   	-68.014282  
 1825 	44.5530   	-67.942375  
 1826 	44.5774   	-68.014282  
 1827 	44.6019   	-69.307976  
 1828 	44.6263   	-70.026726  
 1829 	44.6507   	-72.254875  
 1830 	44.6751   	-72.326782  
 1831 	44.6996   	-70.098633  
 1832 	44.7240   	-67.295532  
 1833 	44.7484   	-65.354851  
 1834 	44.7728   	-64.204895  
 1835 	44.7973   	-62.408020  
 1836 	44.8217   	-61.186157  
 1837 	44.8461   	-60.539246  
 1838 	44.8705   	-60.036133  
 1839 	44.8950   	-61.401733  
 1840 	44.9194   	-61.186157  
 1841 	44.9438   	-62.911129  
 1842 	44.9682   	-64.132988  
 1843 	44.9927   	-63.773617  
 1844 	45.0171   	-64.564270  
 1845 	45.0415   	-64.636101  
 1846 	45.0659   	-64.708008  
 1847 	45.0904   	-65.211121  
 1848 	45.1148   	-65.426758  
 1849 	45.1392   	-66.289246  
 1850 	45.1637   	-66.432983  
 1851 	45.1881   	-66.432983  
 1852 	45.2125   	-66.145508  
 1853 	45.2369   	-66.576782  
 1854 	45.2614   	-67.007996  
 1855 	45.2858   	-67.367371  
 1856 	45.3102   	-67.295532  
 1857 	45.3346   	-67.654907  
 1858 	45.3591   	-67.511108  
 1859 	45.3835   	-68.086113  
 1860 	45.4079   	-68.373657  
 1861 	45.4323   	-68.733032  
 1862 	45.4568   	-68.301750  
 1863 	45.4812   	-68.661133  
 1864 	45.5056   	-68.589233  
 1865 	45.5300   	-68.086113  
 1866 	45.5545   	-68.158020  
 1867 	45.5789   	-68.733032  
 1868 	45.6033   	-69.307976  
 1869 	45.6277   	-69.164238  
 1870 	45.6522   	-70.098633  
 1871 	45.6766   	-69.882996  
 1872 	45.7010   	-69.451775  
 1873 	45.7255   	-70.386101  
 1874 	45.7499   	-70.026726  
 1875 	45.7743   	-70.529900  
 1876 	45.7987   	-70.242371  
 1877 	45.8232   	-69.954895  
 1878 	45.8476   	-69.523613  
 1879 	45.8720   	-70.026726  
 1880 	45.8964   	-69.236145  
 1881 	45.9209   	-70.026726  
 1882 	45.9453   	-69.523613  
 1883 	45.9697   	-69.379883  
 1884 	45.9941   	-69.236145  
 1885 	46.0186   	-70.601746  
 1886 	46.0430   	-70.961121  
 1887 	46.0674   	-71.464233  
 1888 	46.0918   	-70.098633  
 1889 	46.1163   	-69.882996  
 1890 	46.1407   	-69.307976  
 1891 	46.1651   	-69.307976  
 1892 	46.1895   	-69.092407  
 1893 	46.2140   	-70.314270  
 1894 	46.2384   	-70.098633  
 1895 	46.2628   	-70.673637  
 1896 	46.2872   	-70.170525  
 1897 	46.3117   	-69.739258  
 1898 	46.3361   	-70.386101  
 1899 	46.3605   	-70.242371  
 1900 	46.3850   	-70.745476  
 1901 	46.4094   	-70.026726  
 1902 	46.4338   	-69.595520  
 1903 	46.4582   	-69.595520  
 1904 	46.4827   	-69.164238  
 1905 	46.5071   	-69.954895  
 1906 	46.5315   	-70.170525  
 1907 	46.5559   	-70.026726  
 1908 	46.5804   	-69.595520  
 1909 	46.6048   	-70.026726  
 1910 	46.6292   	-70.098633  
 1911 	46.6536   	-70.170525  
 1912 	46.6781   	-70.242371  
 1913 	46.7025   	-70.026726  
 1914 	46.7269   	-70.170525  
 1915 	46.7513   	-69.595520  
 1916 	46.7758   	-69.020508  
 1917 	46.8002   	-69.379883  
 1918 	46.8246   	-69.164238  
 1919 	46.8490   	-69.954895  
 1920 	46.8735   	-69.379883  
 1921 	46.8979   	-69.451775  
 1922 	46.9223   	-69.379883  
 1923 	46.9468   	-69.379883  
 1924 	46.9712   	-68.876770  
 1925 	46.9956   	-69.020508  
 1926 	47.0200   	-69.020508  
 1927 	47.0445   	-68.661133  
 1928 	47.0689   	-69.595520  
 1929 	47.0933   	-68.948608  
 1930 	47.1177   	-69.092407  
 1931 	47.1422   	-68.086113  
 1932 	47.1666   	-67.798645  
 1933 	47.1910   	-68.373657  
 1934 	47.2154   	-68.158020  
 1935 	47.2399   	-68.014282  
 1936 	47.2643   	-68.589233  
 1937 	47.2887   	-67.151733  
 1938 	47.3131   	-67.151733  
 1939 	47.3376   	-67.654907  
 1940 	47.3620   	-67.942375  
 1941 	47.3864   	-68.445488  
 1942 	47.4108   	-68.589233  
 1943 	47.4353   	-68.517395  
 1944 	47.4597   	-68.876770  
 1945 	47.4841   	-69.523613  
 1946 	47.5085   	-69.307976  
 1947 	47.5330   	-69.307976  
 1948 	47.5574   	-69.236145  
 1949 	47.5818   	-70.026726  
 1950 	47.6063   	-69.523613  
 1951 	47.6307   	-69.667351  
 1952 	47.6551   	-70.026726  
 1953 	47.6795   	-69.451775  
 1954 	47.7040   	-69.811150  
 1955 	47.7284   	-69.954895  
 1956 	47.7528   	-69.882996  
 1957 	47.7772   	-69.882996  
 1958 	47.8017   	-70.098633  
 1959 	47.8261   	-69.451775  
 1960 	47.8505   	-69.379883  
 1961 	47.8749   	-69.451775  
 1962 	47.8994   	-70.026726  
 1963 	47.9238   	-68.876770  
 1964 	47.9482   	-69.811150  
 1965 	47.9726   	-69.092407  
 1966 	47.9971   	-69.164238  
 1967 	48.0215   	-69.307976  
 1968 	48.0459   	-68.876770  
 1969 	48.0703   	-68.733032  
 1970 	48.0948   	-68.229858  
 1971 	48.1192   	-68.229858  
 1972 	48.1436   	-68.445488  
 1973 	48.1681   	-67.726746  
 1974 	48.1925   	-68.229858  
 1975 	48.2169   	-68.517395  
 1976 	48.2413   	-68.804863  
 1977 	48.2658   	-69.379883  
 1978 	48.2902   	-69.811150  
 1979 	48.3146   	-70.314270  
 1980 	48.3390   	-69.739258  
 1981 	48.3635   	-69.236145  
 1982 	48.3879   	-69.739258  
 1983 	48.4123   	-68.517395  
 1984 	48.4367   	-69.307976  
 1985 	48.4612   	-69.236145  
 1986 	48.4856   	-70.529900  
 1987 	48.5100   	-69.523613  
 1988 	48.5344   	-68.517395  
 1989 	48.5589   	-68.301750  
 1990 	48.5833   	-69.379883  
 1991 	48.6077   	-69.667351  
 1992 	48.6321   	-69.882996  
 1993 	48.6566   	-69.739258  
 1994 	48.6810   	-70.170525  
 1995 	48.7054   	-70.242371  
 1996 	48.7298   	-69.451775  
 1997 	48.7543   	-68.948608  
 1998 	48.7787   	-70.170525  
 1999 	48.8031   	-68.301750  
 2000 	48.8276   	-69.020508  
 2001 	48.8520   	-69.236145  
 2002 	48.8764   	-69.307976  
 2003 	48.9008   	-68.373657  
 2004 	48.9253   	-68.948608  
 2005 	48.9497   	-70.026726  
 2006 	48.9741   	-68.876770  
 2007 	48.9985   	-69.595520  
 2008 	49.0230   	-69.379883  
 2009 	49.0474   	-70.098633  
 2010 	49.0718   	-70.098633  
 2011 	49.0962   	-69.667351  
 2012 	49.1207   	-70.026726  
 2013 	49.1451   	-70.170525  
 2014 	49.1695   	-70.529900  
 2015 	49.1939   	-68.948608  
 2016 	49.2184   	-69.667351  
 2017 	49.2428   	-69.236145  
 2018 	49.2672   	-70.386101  
 2019 	49.2916   	-69.811150  
 2020 	49.3161   	-69.092407  
 2021 	49.3405   	-69.307976  
 2022 	49.3649   	-67.223625  
 2023 	49.3893   	-67.798645  
 2024 	49.4138   	-68.661133  
 2025 	49.4382   	-69.379883  
 2026 	49.4626   	-68.948608  
 2027 	49.4871   	-69.811150  
 2028 	49.5115   	-68.948608  
 2029 	49.5359   	-69.954895  
 2030 	49.5603   	-68.733032  
 2031 	49.5848   	-69.307976  
 2032 	49.6092   	-69.451775  
 2033 	49.6336   	-68.948608  
 2034 	49.6580   	-69.954895  
 2035 	49.6825   	-70.529900  
 2036 	49.7069   	-70.386101  
 2037 	49.7313   	-70.242371  
 2038 	49.7557   	-69.954895  
 2039 	49.7802   	-68.948608  
 2040 	49.8046   	-69.739258  
 2041 	49.8290   	-70.601746  
 2042 	49.8534   	-70.242371  
 2043 	49.8779   	-70.026726  
 2044 	49.9023   	-69.451775  
 2045 	49.9267   	-68.661133  
 2046 	49.9511   	-69.379883  
 2047 	49.9756   	-69.882996  
 2048 	50.0000   	-68.948608  

